MicroMag 2900/3900 Data File (Series 0016.002)
Direct moment vs. field; Hysteresis loop

INSTRUMENT
Configuration                   VSM
Temperature control             None
Hardware version                0004
Software version                06/08/2012
Units of measure                Hybrid SI
Temperature in                  Kelvin

SAMPLE
Mass                            N/A
Volume                          N/A
Demagnetizing factor            N/A

SETTINGS
Field range                    +1.000000E+00
Field (command)                 N/A
Moment range                   +5.000000E-06
Averaging time                 +100.0000E-03
Temperature (command)           N/A
Tmprtr difference correction    No
Orientation                     0.000000E+00
Vibration amplitude             1.0
Calibration factor             +3.570920E+00
Operating frequency            +83.00000E+00
Sweep mode                      Discrete
Pause after sweep increment    +300.0000E-03

MEASUREMENT
Description                    "DQ15-33B1"
Field (measured)                N/A
Temperature (measured)          N/A
Averages (completed)            1
Measured on                     10/29/2016  13:56
Elapsed time                   +166.7839E+00

PROCESSING
Background subtraction          No
Delta-m processing              N/A
Demagnetizing factor            No
Normalization                   No
Normalization factor            N/A
Offset (field)                  No
Offset (moment)                 No
Pole saturation                 No
Slope correction                No

VIEWPORT
Left                           -500.0000E-03
Right                          +500.0000E-03
Bottom                         -5.000000E-06
Top                            +5.000000E-06
Show X-axis?                    Yes
Show Y-axis?                    Yes

CHARACTERIZATION
Initial slope                   N/A
Saturation                     +2.610650E-06
Remanence                      +127.4379E-09
Coercivity                     +4.130366E-03
S*                             +36.54201E-06

SCRIPT
Averages (target)               1
Averaging time                 +100.0000E-03
Demagnetize?                    No
Maximum field                  +500.0000E-03
Field increment                +5.000000E-03
Hysteresis loop?                Yes
Initial magnetization?          No
Pause                          +1.000000E+00
Saturate before measuring?      No
Number of segments              2
Number of data                  402

Segment   Averaging      Initial        Field         Final                    Final 
 Number      Time         Field       Increment       Field         Pause      Index 
             (s)           (T)           (T)           (T)           (s)     
0000001,+100.0000E-03,+500.0000E-03,+5.000000E-03,-500.0000E-03,+1.000000E+00,0000201
0000002,+100.0000E-03,-500.0000E-03,+5.000000E-03,+500.0000E-03,+1.000000E+00,0000402

                           
    Field         Moment   
     (T)          (Am²)    
+499.3761E-03,+2.610831E-06
+494.6092E-03,+2.614718E-06
+489.5311E-03,+2.613916E-06
+484.6090E-03,+2.614987E-06
+479.4663E-03,+2.612259E-06
+474.5706E-03,+2.609420E-06
+469.6523E-03,+2.612063E-06
+464.5010E-03,+2.612807E-06
+459.5962E-03,+2.618015E-06
+454.4521E-03,+2.613418E-06
+449.5524E-03,+2.615158E-06
+444.6532E-03,+2.617582E-06
+439.4970E-03,+2.610323E-06
+434.5951E-03,+2.617095E-06
+429.6978E-03,+2.612114E-06
+424.5474E-03,+2.612376E-06
+419.6445E-03,+2.618995E-06
+414.5114E-03,+2.614231E-06
+409.6011E-03,+2.615324E-06
+404.7030E-03,+2.615131E-06
+399.5587E-03,+2.621804E-06
+394.6555E-03,+2.615578E-06
+389.5054E-03,+2.622012E-06
+384.6196E-03,+2.616107E-06
+379.7077E-03,+2.617564E-06
+374.5555E-03,+2.617464E-06
+369.6702E-03,+2.616169E-06
+364.5371E-03,+2.619256E-06
+359.6325E-03,+2.617919E-06
+354.7215E-03,+2.615708E-06
+349.5880E-03,+2.616370E-06
+344.6714E-03,+2.610196E-06
+339.7632E-03,+2.618225E-06
+334.6397E-03,+2.615131E-06
+329.7240E-03,+2.611765E-06
+324.5916E-03,+2.611175E-06
+319.6839E-03,+2.611116E-06
+314.7873E-03,+2.607657E-06
+309.6271E-03,+2.610555E-06
+304.7476E-03,+2.607612E-06
+299.6041E-03,+2.607060E-06
+294.6924E-03,+2.604607E-06
+289.8146E-03,+2.596986E-06
+284.6613E-03,+2.602416E-06
+279.7395E-03,+2.602974E-06
+274.6160E-03,+2.603055E-06
+269.7184E-03,+2.594953E-06
+264.8079E-03,+2.595363E-06
+259.6674E-03,+2.593901E-06
+254.7673E-03,+2.586430E-06
+249.8635E-03,+2.581902E-06
+244.7201E-03,+2.586360E-06
+239.8187E-03,+2.574624E-06
+234.6781E-03,+2.574304E-06
+229.7788E-03,+2.566712E-06
+224.8646E-03,+2.566829E-06
+219.7274E-03,+2.555089E-06
+214.8457E-03,+2.556877E-06
+209.6933E-03,+2.544054E-06
+204.7846E-03,+2.542512E-06
+199.8729E-03,+2.540620E-06
+194.7589E-03,+2.529376E-06
+189.8542E-03,+2.515478E-06
+184.7019E-03,+2.507606E-06
+179.8210E-03,+2.502329E-06
+174.9200E-03,+2.486481E-06
+169.7744E-03,+2.480783E-06
+164.8339E-03,+2.452123E-06
+159.7109E-03,+2.442797E-06
+154.8124E-03,+2.437721E-06
+149.9044E-03,+2.415592E-06
+144.7766E-03,+2.390044E-06
+139.8436E-03,+2.361445E-06
+134.9661E-03,+2.337639E-06
+129.8212E-03,+2.322215E-06
+124.9272E-03,+2.283567E-06
+119.7753E-03,+2.239158E-06
+114.8824E-03,+2.204989E-06
+109.9880E-03,+2.169615E-06
+104.8486E-03,+2.122064E-06
+99.94453E-03,+2.077391E-06
+94.80618E-03,+2.028088E-06
+89.89576E-03,+1.960088E-06
+85.00375E-03,+1.905418E-06
+79.88160E-03,+1.835965E-06
+74.94321E-03,+1.765694E-06
+69.77975E-03,+1.702063E-06
+64.91893E-03,+1.614823E-06
+60.02105E-03,+1.520780E-06
+54.86851E-03,+1.459046E-06
+49.96635E-03,+1.342243E-06
+45.06254E-03,+1.246876E-06
+39.92719E-03,+1.146243E-06
+35.02966E-03,+1.029959E-06
+29.86411E-03,+915.0439E-09
+24.97677E-03,+796.1857E-09
+20.08387E-03,+690.3948E-09
+14.92864E-03,+555.0174E-09
+10.06198E-03,+413.8824E-09
+4.921889E-03,+270.0307E-09
-2.272751E-06,+134.0868E-09
-4.865724E-03,-21.14460E-09
-10.00600E-03,-163.9000E-09
-14.90702E-03,-322.3971E-09
-20.05163E-03,-474.7572E-09
-24.95856E-03,-608.5425E-09
-29.86327E-03,-756.3871E-09
-35.01436E-03,-886.5589E-09
-39.90128E-03,-1.005195E-06
-45.04157E-03,-1.138453E-06
-49.92967E-03,-1.245462E-06
-54.87014E-03,-1.341059E-06
-60.00298E-03,-1.469881E-06
-64.88542E-03,-1.537184E-06
-69.78449E-03,-1.640247E-06
-74.91148E-03,-1.726216E-06
-79.82486E-03,-1.812967E-06
-84.95834E-03,-1.874789E-06
-89.87354E-03,-1.931962E-06
-94.76269E-03,-2.001691E-06
-99.94678E-03,-2.038441E-06
-104.8061E-03,-2.092829E-06
-109.9635E-03,-2.150827E-06
-114.8575E-03,-2.199493E-06
-119.7414E-03,-2.239745E-06
-124.8737E-03,-2.280509E-06
-129.7825E-03,-2.292463E-06
-134.9289E-03,-2.329569E-06
-139.8256E-03,-2.365718E-06
-144.7303E-03,-2.365212E-06
-149.8775E-03,-2.418671E-06
-154.7367E-03,-2.419749E-06
-159.6756E-03,-2.438083E-06
-164.8499E-03,-2.458008E-06
-169.7142E-03,-2.473797E-06
-174.8742E-03,-2.480864E-06
-179.7743E-03,-2.500984E-06
-184.6620E-03,-2.511986E-06
-189.8085E-03,-2.516840E-06
-194.6974E-03,-2.525166E-06
-199.8366E-03,-2.545662E-06
-204.7487E-03,-2.547309E-06
-209.6348E-03,-2.547708E-06
-214.7820E-03,-2.559295E-06
-219.6846E-03,-2.558738E-06
-224.8337E-03,-2.555029E-06
-229.7260E-03,-2.568760E-06
-234.6334E-03,-2.570772E-06
-239.7888E-03,-2.570509E-06
-244.6683E-03,-2.563156E-06
-249.8083E-03,-2.573727E-06
-254.7056E-03,-2.590092E-06
-259.6110E-03,-2.587430E-06
-264.7502E-03,-2.571916E-06
-269.6522E-03,-2.584275E-06
-274.5436E-03,-2.590158E-06
-279.6913E-03,-2.589167E-06
-284.5991E-03,-2.596171E-06
-289.7356E-03,-2.600960E-06
-294.6353E-03,-2.599637E-06
-299.5279E-03,-2.595071E-06
-304.6886E-03,-2.604644E-06
-309.5827E-03,-2.591327E-06
-314.7165E-03,-2.606597E-06
-319.6246E-03,-2.605336E-06
-324.5181E-03,-2.608250E-06
-329.6512E-03,-2.610433E-06
-334.5696E-03,-2.602004E-06
-339.6843E-03,-2.618481E-06
-344.5755E-03,-2.614325E-06
-349.4661E-03,-2.610868E-06
-354.6920E-03,-2.616071E-06
-359.5508E-03,-2.612298E-06
-364.4441E-03,-2.621797E-06
-369.5804E-03,-2.612737E-06
-374.4813E-03,-2.616780E-06
-379.6268E-03,-2.613400E-06
-384.5244E-03,-2.615850E-06
-389.4387E-03,-2.602761E-06
-394.5851E-03,-2.617388E-06
-399.4769E-03,-2.609534E-06
-404.6063E-03,-2.621191E-06
-409.5146E-03,-2.607756E-06
-414.3879E-03,-2.610991E-06
-419.5331E-03,-2.617824E-06
-424.4396E-03,-2.607298E-06
-429.5847E-03,-2.609042E-06
-434.4731E-03,-2.608909E-06
-439.3764E-03,-2.612133E-06
-444.5301E-03,-2.616884E-06
-449.4366E-03,-2.612638E-06
-454.3083E-03,-2.616861E-06
-459.4776E-03,-2.608875E-06
-464.3441E-03,-2.610076E-06
-469.5009E-03,-2.607991E-06
-474.4081E-03,-2.609661E-06
-479.3165E-03,-2.610401E-06
-484.4351E-03,-2.601567E-06
-489.3592E-03,-2.606889E-06
-494.4849E-03,-2.603226E-06
-499.4585E-03,-2.609313E-06

-499.4805E-03,-2.607378E-06
-494.7269E-03,-2.614282E-06
-489.6305E-03,-2.606804E-06
-484.7181E-03,-2.613519E-06
-479.5896E-03,-2.612163E-06
-474.6716E-03,-2.608958E-06
-469.7898E-03,-2.612211E-06
-464.6102E-03,-2.612970E-06
-459.7108E-03,-2.611619E-06
-454.5570E-03,-2.613028E-06
-449.6455E-03,-2.618169E-06
-444.7692E-03,-2.613549E-06
-439.6170E-03,-2.611629E-06
-434.7025E-03,-2.614107E-06
-429.8021E-03,-2.616990E-06
-424.6584E-03,-2.616291E-06
-419.7482E-03,-2.617925E-06
-414.6174E-03,-2.611535E-06
-409.7261E-03,-2.616537E-06
-404.8340E-03,-2.613342E-06
-399.6967E-03,-2.614123E-06
-394.7771E-03,-2.618008E-06
-389.6151E-03,-2.613466E-06
-384.7123E-03,-2.611753E-06
-379.8203E-03,-2.613548E-06
-374.6683E-03,-2.611286E-06
-369.7879E-03,-2.614377E-06
-364.6488E-03,-2.611540E-06
-359.7133E-03,-2.619135E-06
-354.8085E-03,-2.606540E-06
-349.6813E-03,-2.614460E-06
-344.7720E-03,-2.609713E-06
-339.8701E-03,-2.614148E-06
-334.7442E-03,-2.612535E-06
-329.8259E-03,-2.605952E-06
-324.6958E-03,-2.606906E-06
-319.8056E-03,-2.611497E-06
-314.8881E-03,-2.606239E-06
-309.7465E-03,-2.606412E-06
-304.8173E-03,-2.599350E-06
-299.7133E-03,-2.599766E-06
-294.7793E-03,-2.594524E-06
-289.8992E-03,-2.599772E-06
-284.7562E-03,-2.597354E-06
-279.8446E-03,-2.594445E-06
-274.7074E-03,-2.596294E-06
-269.8170E-03,-2.592117E-06
-264.9013E-03,-2.590382E-06
-259.7655E-03,-2.584266E-06
-254.8475E-03,-2.585802E-06
-249.9755E-03,-2.581521E-06
-244.7867E-03,-2.585581E-06
-239.9351E-03,-2.577913E-06
-234.7817E-03,-2.569713E-06
-229.8704E-03,-2.571224E-06
-224.9859E-03,-2.559290E-06
-219.8861E-03,-2.554017E-06
-214.9280E-03,-2.550639E-06
-209.7916E-03,-2.542964E-06
-204.8878E-03,-2.546113E-06
-199.9865E-03,-2.530618E-06
-194.8452E-03,-2.525529E-06
-189.9546E-03,-2.526881E-06
-184.8059E-03,-2.501786E-06
-179.9193E-03,-2.496420E-06
-175.0207E-03,-2.485058E-06
-169.8524E-03,-2.471691E-06
-164.9577E-03,-2.459745E-06
-159.8196E-03,-2.437861E-06
-154.9046E-03,-2.424541E-06
-149.9984E-03,-2.413158E-06
-144.8753E-03,-2.377412E-06
-139.9604E-03,-2.357063E-06
-135.0614E-03,-2.338575E-06
-129.9250E-03,-2.307785E-06
-125.0157E-03,-2.279179E-06
-119.8802E-03,-2.241007E-06
-114.9998E-03,-2.214283E-06
-110.0543E-03,-2.160831E-06
-104.9494E-03,-2.119902E-06
-100.0353E-03,-2.066078E-06
-94.89091E-03,-2.024053E-06
-89.99545E-03,-1.953403E-06
-85.11312E-03,-1.914672E-06
-79.98776E-03,-1.839231E-06
-75.02909E-03,-1.757029E-06
-69.90242E-03,-1.690814E-06
-65.01910E-03,-1.619404E-06
-60.12879E-03,-1.523111E-06
-54.98621E-03,-1.436786E-06
-50.07468E-03,-1.332350E-06
-45.16212E-03,-1.227773E-06
-40.03815E-03,-1.158568E-06
-35.14647E-03,-1.022876E-06
-29.98083E-03,-924.5707E-09
-25.07530E-03,-798.3657E-09
-20.16681E-03,-680.8691E-09
-15.04396E-03,-538.1160E-09
-10.13695E-03,-405.5652E-09
-4.991716E-03,-260.7931E-09
-126.8634E-06,-124.5009E-09
+4.789162E-03,+21.77056E-09
+9.925886E-03,+168.9702E-09
+14.78904E-03,+329.3992E-09
+19.93447E-03,+475.9640E-09
+24.84369E-03,+624.0290E-09
+29.73494E-03,+760.0631E-09
+34.89602E-03,+900.1473E-09
+39.78658E-03,+1.017972E-06
+44.92735E-03,+1.141026E-06
+49.84459E-03,+1.258849E-06
+54.73039E-03,+1.381948E-06
+59.87338E-03,+1.467681E-06
+64.78386E-03,+1.551309E-06
+69.67428E-03,+1.643721E-06
+74.79512E-03,+1.745940E-06
+79.73682E-03,+1.790952E-06
+84.87427E-03,+1.866748E-06
+89.76211E-03,+1.948572E-06
+94.66498E-03,+1.995310E-06
+99.81328E-03,+2.053761E-06
+104.6994E-03,+2.091524E-06
+109.8545E-03,+2.164010E-06
+114.7449E-03,+2.204448E-06
+119.6462E-03,+2.237769E-06
+124.8056E-03,+2.273503E-06
+129.6943E-03,+2.305322E-06
+134.8359E-03,+2.334785E-06
+139.7240E-03,+2.365643E-06
+144.6279E-03,+2.383773E-06
+149.7744E-03,+2.402882E-06
+154.6725E-03,+2.431590E-06
+159.5152E-03,+2.433137E-06
+164.7184E-03,+2.452234E-06
+169.6087E-03,+2.466719E-06
+174.7699E-03,+2.494965E-06
+179.6729E-03,+2.498485E-06
+184.5266E-03,+2.499027E-06
+189.7008E-03,+2.527807E-06
+194.5927E-03,+2.523723E-06
+199.7375E-03,+2.525481E-06
+204.6347E-03,+2.534176E-06
+209.5426E-03,+2.549294E-06
+214.6920E-03,+2.560074E-06
+219.5732E-03,+2.562916E-06
+224.7299E-03,+2.545698E-06
+229.6129E-03,+2.578222E-06
+234.5093E-03,+2.577473E-06
+239.6856E-03,+2.578643E-06
+244.5719E-03,+2.584157E-06
+249.7108E-03,+2.578762E-06
+254.6089E-03,+2.595847E-06
+259.4983E-03,+2.590742E-06
+264.6371E-03,+2.601394E-06
+269.5212E-03,+2.591679E-06
+274.4474E-03,+2.594317E-06
+279.5749E-03,+2.607350E-06
+284.5133E-03,+2.598530E-06
+289.6425E-03,+2.599359E-06
+294.5219E-03,+2.611204E-06
+299.4373E-03,+2.604171E-06
+304.5770E-03,+2.604831E-06
+309.4701E-03,+2.610916E-06
+314.6337E-03,+2.607556E-06
+319.5105E-03,+2.607574E-06
+324.4127E-03,+2.619031E-06
+329.5656E-03,+2.618794E-06
+334.4441E-03,+2.608191E-06
+339.5833E-03,+2.621322E-06
+344.4849E-03,+2.611616E-06
+349.3918E-03,+2.615761E-06
+354.5254E-03,+2.610916E-06
+359.4344E-03,+2.612129E-06
+364.3478E-03,+2.608891E-06
+369.4779E-03,+2.614655E-06
+374.3990E-03,+2.617555E-06
+379.5148E-03,+2.609839E-06
+384.4383E-03,+2.620615E-06
+389.3268E-03,+2.615176E-06
+394.4497E-03,+2.618085E-06
+399.3640E-03,+2.615100E-06
+404.4853E-03,+2.624842E-06
+409.3999E-03,+2.613863E-06
+414.3056E-03,+2.618469E-06
+419.4370E-03,+2.620618E-06
+424.3410E-03,+2.614200E-06
+429.4651E-03,+2.620242E-06
+434.3756E-03,+2.617809E-06
+439.2697E-03,+2.616968E-06
+444.4191E-03,+2.615016E-06
+449.3085E-03,+2.618908E-06
+454.2106E-03,+2.617489E-06
+459.3377E-03,+2.614995E-06
+464.2409E-03,+2.615332E-06
+469.3784E-03,+2.617916E-06
+474.2879E-03,+2.615942E-06
+479.1828E-03,+2.608828E-06
+484.3187E-03,+2.612871E-06
+489.2258E-03,+2.617114E-06
+494.3706E-03,+2.608393E-06
+499.3558E-03,+2.602207E-06

MicroMag 2900/3900 Data File ends
