MicroMag 2900/3900 Data File (Series 0016.002)
Direct moment vs. field; Hysteresis loop

INSTRUMENT
Configuration                   VSM
Temperature control             None
Hardware version                0004
Software version                06/08/2012
Units of measure                Hybrid SI
Temperature in                  Kelvin

SAMPLE
Mass                            N/A
Volume                          N/A
Demagnetizing factor            N/A

SETTINGS
Field range                    +1.000000E+00
Field (command)                 N/A
Moment range                   +5.000000E-06
Averaging time                 +200.0000E-03
Temperature (command)           N/A
Tmprtr difference correction    No
Orientation                     0.000000E+00
Vibration amplitude             1.0
Calibration factor             +3.570920E+00
Operating frequency            +83.00000E+00
Sweep mode                      Discrete
Pause after sweep increment    +300.0000E-03

MEASUREMENT
Description                    "DQ15-33B1"
Field (measured)                N/A
Temperature (measured)          N/A
Averages (completed)            1
Measured on                     10/29/2016  15:19
Elapsed time                   +206.9384E+00

PROCESSING
Background subtraction          No
Delta-m processing              N/A
Demagnetizing factor            No
Normalization                   No
Normalization factor            N/A
Offset (field)                  No
Offset (moment)                 No
Pole saturation                 No
Slope correction                No

VIEWPORT
Left                           -500.0000E-03
Right                          +500.0000E-03
Bottom                         -5.000000E-06
Top                            +5.000000E-06
Show X-axis?                    Yes
Show Y-axis?                    Yes

CHARACTERIZATION
Initial slope                   N/A
Saturation                     +2.624826E-06
Remanence                      +123.5551E-09
Coercivity                     +4.284535E-03
S*                             -118.0866E-06

SCRIPT
Averages (target)               1
Averaging time                 +200.0000E-03
Demagnetize?                    No
Maximum field                  +500.0000E-03
Field increment                +5.000000E-03
Hysteresis loop?                Yes
Initial magnetization?          No
Pause                          +1.000000E+00
Saturate before measuring?      No
Number of segments              2
Number of data                  402

Segment   Averaging      Initial        Field         Final                    Final 
 Number      Time         Field       Increment       Field         Pause      Index 
             (s)           (T)           (T)           (T)           (s)     
0000001,+200.0000E-03,+500.0000E-03,+5.000000E-03,-500.0000E-03,+1.000000E+00,0000201
0000002,+200.0000E-03,-500.0000E-03,+5.000000E-03,+500.0000E-03,+1.000000E+00,0000402

                           
    Field         Moment   
     (T)          (Am²)    
+499.3597E-03,+2.627583E-06
+494.5779E-03,+2.628065E-06
+489.4735E-03,+2.627810E-06
+484.5608E-03,+2.629864E-06
+479.4098E-03,+2.630965E-06
+474.5105E-03,+2.628132E-06
+469.5938E-03,+2.628604E-06
+464.4559E-03,+2.628512E-06
+459.5586E-03,+2.630340E-06
+454.4086E-03,+2.629519E-06
+449.4943E-03,+2.623891E-06
+444.6091E-03,+2.630908E-06
+439.4669E-03,+2.628162E-06
+434.5603E-03,+2.630326E-06
+429.6573E-03,+2.631161E-06
+424.5121E-03,+2.633469E-06
+419.6005E-03,+2.631308E-06
+414.4678E-03,+2.628325E-06
+409.5611E-03,+2.630549E-06
+404.6591E-03,+2.636494E-06
+399.5209E-03,+2.632832E-06
+394.6192E-03,+2.637099E-06
+389.4597E-03,+2.632588E-06
+384.5758E-03,+2.631797E-06
+379.6794E-03,+2.628848E-06
+374.5228E-03,+2.631057E-06
+369.6270E-03,+2.632358E-06
+364.4902E-03,+2.630102E-06
+359.5907E-03,+2.632457E-06
+354.6674E-03,+2.626819E-06
+349.5415E-03,+2.631057E-06
+344.6313E-03,+2.630426E-06
+339.7352E-03,+2.627264E-06
+334.6015E-03,+2.626995E-06
+329.6938E-03,+2.627498E-06
+324.5560E-03,+2.627724E-06
+319.6477E-03,+2.625953E-06
+314.7540E-03,+2.628584E-06
+309.6081E-03,+2.619987E-06
+304.7134E-03,+2.625728E-06
+299.5805E-03,+2.620829E-06
+294.6596E-03,+2.616491E-06
+289.7712E-03,+2.617349E-06
+284.6412E-03,+2.617258E-06
+279.7109E-03,+2.612652E-06
+274.5767E-03,+2.612679E-06
+269.6823E-03,+2.609430E-06
+264.7734E-03,+2.610125E-06
+259.6330E-03,+2.604718E-06
+254.7368E-03,+2.598237E-06
+249.8398E-03,+2.600822E-06
+244.7016E-03,+2.594236E-06
+239.8051E-03,+2.592513E-06
+234.6464E-03,+2.590181E-06
+229.7463E-03,+2.581891E-06
+224.8514E-03,+2.582522E-06
+219.7136E-03,+2.572503E-06
+214.8036E-03,+2.570797E-06
+209.6744E-03,+2.566240E-06
+204.7662E-03,+2.558916E-06
+199.8511E-03,+2.552770E-06
+194.7363E-03,+2.538081E-06
+189.8293E-03,+2.532588E-06
+184.6763E-03,+2.526673E-06
+179.7937E-03,+2.510805E-06
+174.8848E-03,+2.505938E-06
+169.7273E-03,+2.489385E-06
+164.8438E-03,+2.475257E-06
+159.7045E-03,+2.458299E-06
+154.7785E-03,+2.441211E-06
+149.8801E-03,+2.434940E-06
+144.7443E-03,+2.399699E-06
+139.8491E-03,+2.383487E-06
+134.9425E-03,+2.358188E-06
+129.8048E-03,+2.323781E-06
+124.9067E-03,+2.301227E-06
+119.7597E-03,+2.261989E-06
+114.8763E-03,+2.228271E-06
+109.9683E-03,+2.181113E-06
+104.8163E-03,+2.141526E-06
+99.91845E-03,+2.095273E-06
+94.79100E-03,+2.040896E-06
+89.87946E-03,+1.984201E-06
+84.97830E-03,+1.917442E-06
+79.84306E-03,+1.857330E-06
+74.92306E-03,+1.785035E-06
+69.78913E-03,+1.696887E-06
+64.88685E-03,+1.622769E-06
+59.98979E-03,+1.556048E-06
+54.84816E-03,+1.455222E-06
+49.93198E-03,+1.353931E-06
+45.04679E-03,+1.264284E-06
+39.91179E-03,+1.148786E-06
+35.01312E-03,+1.033180E-06
+29.85196E-03,+918.3826E-09
+24.96379E-03,+805.3153E-09
+20.05028E-03,+682.7491E-09
+14.91087E-03,+548.4686E-09
+10.03259E-03,+423.5452E-09
+4.888643E-03,+278.9429E-09
-8.144129E-06,+122.7082E-09
-4.883885E-03,-15.46073E-09
-10.01685E-03,-171.4798E-09
-14.91800E-03,-315.6670E-09
-20.06488E-03,-466.7030E-09
-24.96158E-03,-615.5198E-09
-29.86277E-03,-756.4763E-09
-35.02380E-03,-881.3656E-09
-39.91922E-03,-1.023411E-06
-45.05337E-03,-1.136137E-06
-49.95558E-03,-1.258774E-06
-54.85862E-03,-1.364079E-06
-60.00015E-03,-1.462038E-06
-64.89690E-03,-1.555040E-06
-69.79737E-03,-1.645270E-06
-74.93889E-03,-1.738431E-06
-79.84465E-03,-1.811366E-06
-84.98281E-03,-1.881351E-06
-89.87104E-03,-1.948496E-06
-94.78511E-03,-1.999170E-06
-99.92226E-03,-2.069301E-06
-104.8372E-03,-2.117097E-06
-109.9731E-03,-2.170612E-06
-114.8664E-03,-2.208104E-06
-119.7616E-03,-2.237437E-06
-124.8956E-03,-2.272779E-06
-129.8103E-03,-2.310233E-06
-134.9359E-03,-2.343780E-06
-139.8432E-03,-2.382966E-06
-144.7461E-03,-2.395833E-06
-149.8850E-03,-2.421893E-06
-154.7756E-03,-2.436038E-06
-159.6946E-03,-2.455488E-06
-164.8443E-03,-2.477033E-06
-169.7257E-03,-2.491447E-06
-174.8830E-03,-2.497562E-06
-179.7707E-03,-2.506068E-06
-184.6747E-03,-2.522916E-06
-189.8200E-03,-2.526911E-06
-194.7044E-03,-2.534883E-06
-199.8470E-03,-2.547599E-06
-204.7628E-03,-2.546177E-06
-209.6581E-03,-2.562023E-06
-214.7969E-03,-2.563239E-06
-219.6974E-03,-2.572888E-06
-224.8445E-03,-2.574111E-06
-229.7453E-03,-2.582540E-06
-234.6461E-03,-2.584437E-06
-239.7986E-03,-2.589591E-06
-244.6847E-03,-2.596124E-06
-249.8202E-03,-2.592928E-06
-254.7188E-03,-2.602268E-06
-259.6199E-03,-2.610912E-06
-264.7623E-03,-2.609220E-06
-269.6573E-03,-2.607298E-06
-274.5604E-03,-2.608100E-06
-279.6964E-03,-2.609729E-06
-284.6149E-03,-2.610542E-06
-289.7540E-03,-2.616658E-06
-294.6341E-03,-2.613799E-06
-299.5525E-03,-2.618281E-06
-304.6924E-03,-2.618167E-06
-309.5931E-03,-2.622071E-06
-314.7282E-03,-2.630866E-06
-319.6330E-03,-2.627880E-06
-324.5264E-03,-2.622703E-06
-329.6760E-03,-2.630687E-06
-334.5824E-03,-2.625176E-06
-339.6978E-03,-2.629828E-06
-344.6026E-03,-2.628254E-06
-349.5096E-03,-2.629010E-06
-354.6608E-03,-2.629123E-06
-359.5563E-03,-2.626656E-06
-364.4637E-03,-2.627402E-06
-369.5897E-03,-2.626060E-06
-374.4909E-03,-2.628696E-06
-379.6401E-03,-2.624454E-06
-384.5380E-03,-2.626836E-06
-389.4331E-03,-2.624131E-06
-394.5837E-03,-2.627427E-06
-399.4771E-03,-2.624826E-06
-404.6011E-03,-2.629356E-06
-409.5362E-03,-2.625751E-06
-414.4201E-03,-2.627436E-06
-419.5566E-03,-2.625811E-06
-424.4555E-03,-2.624455E-06
-429.5892E-03,-2.627058E-06
-434.4923E-03,-2.627854E-06
-439.3981E-03,-2.628225E-06
-444.5452E-03,-2.627179E-06
-449.4361E-03,-2.623046E-06
-454.3283E-03,-2.625484E-06
-459.4736E-03,-2.625538E-06
-464.3683E-03,-2.627000E-06
-469.5143E-03,-2.624878E-06
-474.4283E-03,-2.626508E-06
-479.3337E-03,-2.628480E-06
-484.4468E-03,-2.626602E-06
-489.3766E-03,-2.620691E-06
-494.5146E-03,-2.626360E-06
-499.4710E-03,-2.620083E-06

-499.4734E-03,-2.619000E-06
-494.7042E-03,-2.621959E-06
-489.5948E-03,-2.622632E-06
-484.6703E-03,-2.623590E-06
-479.5402E-03,-2.624510E-06
-474.6310E-03,-2.624473E-06
-469.7194E-03,-2.621170E-06
-464.5672E-03,-2.624705E-06
-459.6640E-03,-2.628780E-06
-454.5118E-03,-2.626391E-06
-449.6158E-03,-2.628117E-06
-444.7185E-03,-2.623632E-06
-439.5681E-03,-2.631582E-06
-434.6703E-03,-2.628736E-06
-429.7622E-03,-2.625617E-06
-424.6207E-03,-2.630424E-06
-419.7248E-03,-2.631720E-06
-414.5754E-03,-2.631809E-06
-409.6776E-03,-2.633709E-06
-404.7704E-03,-2.631086E-06
-399.6315E-03,-2.629394E-06
-394.7444E-03,-2.628802E-06
-389.5841E-03,-2.628745E-06
-384.6871E-03,-2.629978E-06
-379.7753E-03,-2.631188E-06
-374.6327E-03,-2.631651E-06
-369.7459E-03,-2.630110E-06
-364.6072E-03,-2.627865E-06
-359.6919E-03,-2.628148E-06
-354.7939E-03,-2.630251E-06
-349.6504E-03,-2.627239E-06
-344.7420E-03,-2.629932E-06
-339.8472E-03,-2.625180E-06
-334.7226E-03,-2.626203E-06
-329.8042E-03,-2.627809E-06
-324.6587E-03,-2.624248E-06
-319.7683E-03,-2.619191E-06
-314.8689E-03,-2.625767E-06
-309.7140E-03,-2.620953E-06
-304.8239E-03,-2.618988E-06
-299.6762E-03,-2.620173E-06
-294.7635E-03,-2.620296E-06
-289.8797E-03,-2.616916E-06
-284.7510E-03,-2.613514E-06
-279.8175E-03,-2.616533E-06
-274.6805E-03,-2.611508E-06
-269.7841E-03,-2.611803E-06
-264.8837E-03,-2.601268E-06
-259.7479E-03,-2.602504E-06
-254.8442E-03,-2.599755E-06
-249.9411E-03,-2.598684E-06
-244.8037E-03,-2.592593E-06
-239.9205E-03,-2.591911E-06
-234.7691E-03,-2.585058E-06
-229.8584E-03,-2.582598E-06
-224.9644E-03,-2.576084E-06
-219.8236E-03,-2.571307E-06
-214.9126E-03,-2.571846E-06
-209.7738E-03,-2.557767E-06
-204.8817E-03,-2.556483E-06
-199.9576E-03,-2.545215E-06
-194.8219E-03,-2.542108E-06
-189.9360E-03,-2.531278E-06
-184.7937E-03,-2.529231E-06
-179.8888E-03,-2.510914E-06
-174.9948E-03,-2.494221E-06
-169.8405E-03,-2.487111E-06
-164.9434E-03,-2.468131E-06
-159.8009E-03,-2.452103E-06
-154.8918E-03,-2.442050E-06
-149.9948E-03,-2.418640E-06
-144.8447E-03,-2.393830E-06
-139.9541E-03,-2.380235E-06
-135.0444E-03,-2.352606E-06
-129.9210E-03,-2.323655E-06
-125.0067E-03,-2.289178E-06
-119.8663E-03,-2.258165E-06
-114.9765E-03,-2.221862E-06
-110.0705E-03,-2.177324E-06
-104.9260E-03,-2.126301E-06
-100.0304E-03,-2.087045E-06
-94.89202E-03,-2.034914E-06
-89.96926E-03,-1.974470E-06
-85.08788E-03,-1.922010E-06
-79.94710E-03,-1.843502E-06
-75.02676E-03,-1.775207E-06
-69.89608E-03,-1.697450E-06
-64.99624E-03,-1.623039E-06
-60.10426E-03,-1.537536E-06
-54.95844E-03,-1.447380E-06
-50.05164E-03,-1.347677E-06
-45.15110E-03,-1.255503E-06
-40.02300E-03,-1.148423E-06
-35.12800E-03,-1.039536E-06
-29.96962E-03,-918.6685E-09
-25.06396E-03,-798.5560E-09
-20.16905E-03,-667.3180E-09
-15.02119E-03,-537.7298E-09
-10.12379E-03,-399.9060E-09
-4.975031E-03,-272.6838E-09
-124.0898E-06,-127.7832E-09
+4.796822E-03,+16.60958E-09
+9.925814E-03,+184.3380E-09
+14.81134E-03,+329.6428E-09
+19.96124E-03,+483.2457E-09
+24.86088E-03,+623.6029E-09
+29.75065E-03,+757.2240E-09
+34.90876E-03,+903.3907E-09
+39.80182E-03,+1.025927E-06
+44.93810E-03,+1.156728E-06
+49.84185E-03,+1.266333E-06
+54.74791E-03,+1.367547E-06
+59.88587E-03,+1.470769E-06
+64.79427E-03,+1.563900E-06
+69.68228E-03,+1.660219E-06
+74.82020E-03,+1.741743E-06
+79.75063E-03,+1.818754E-06
+84.87784E-03,+1.897759E-06
+89.77616E-03,+1.957687E-06
+94.68784E-03,+2.024788E-06
+99.81696E-03,+2.073815E-06
+104.7021E-03,+2.114505E-06
+109.8674E-03,+2.164557E-06
+114.7667E-03,+2.212464E-06
+119.6606E-03,+2.252730E-06
+124.7963E-03,+2.293430E-06
+129.6943E-03,+2.313671E-06
+134.8463E-03,+2.355564E-06
+139.7295E-03,+2.380049E-06
+144.6377E-03,+2.398776E-06
+149.7780E-03,+2.436831E-06
+154.6675E-03,+2.450773E-06
+159.5914E-03,+2.452424E-06
+164.7261E-03,+2.475280E-06
+169.6121E-03,+2.489272E-06
+174.7661E-03,+2.502759E-06
+179.6845E-03,+2.510094E-06
+184.5647E-03,+2.530959E-06
+189.7072E-03,+2.532419E-06
+194.6008E-03,+2.538705E-06
+199.7483E-03,+2.541612E-06
+204.6549E-03,+2.560495E-06
+209.5437E-03,+2.570529E-06
+214.6849E-03,+2.568610E-06
+219.5886E-03,+2.576549E-06
+224.7311E-03,+2.573083E-06
+229.6258E-03,+2.580609E-06
+234.5258E-03,+2.589724E-06
+239.6775E-03,+2.601308E-06
+244.5776E-03,+2.596800E-06
+249.7204E-03,+2.601941E-06
+254.6170E-03,+2.604128E-06
+259.5091E-03,+2.609886E-06
+264.6490E-03,+2.607945E-06
+269.5525E-03,+2.609633E-06
+274.4564E-03,+2.617627E-06
+279.5833E-03,+2.619099E-06
+284.5140E-03,+2.622298E-06
+289.6492E-03,+2.612084E-06
+294.5341E-03,+2.623071E-06
+299.4487E-03,+2.621800E-06
+304.5777E-03,+2.617218E-06
+309.4655E-03,+2.621427E-06
+314.6257E-03,+2.626849E-06
+319.5240E-03,+2.628528E-06
+324.4125E-03,+2.627062E-06
+329.5624E-03,+2.626668E-06
+334.4679E-03,+2.626757E-06
+339.5924E-03,+2.634291E-06
+344.5052E-03,+2.627537E-06
+349.3981E-03,+2.627378E-06
+354.5350E-03,+2.630536E-06
+359.4407E-03,+2.634342E-06
+364.3444E-03,+2.632181E-06
+369.4821E-03,+2.631940E-06
+374.3788E-03,+2.632502E-06
+379.5185E-03,+2.625343E-06
+384.4390E-03,+2.630719E-06
+389.3134E-03,+2.628898E-06
+394.4598E-03,+2.631292E-06
+399.3719E-03,+2.633926E-06
+404.5009E-03,+2.630479E-06
+409.4051E-03,+2.632346E-06
+414.3117E-03,+2.633990E-06
+419.4413E-03,+2.626016E-06
+424.3413E-03,+2.634315E-06
+429.4776E-03,+2.633563E-06
+434.3810E-03,+2.625924E-06
+439.2949E-03,+2.632598E-06
+444.4283E-03,+2.633415E-06
+449.3142E-03,+2.630921E-06
+454.2201E-03,+2.625565E-06
+459.3638E-03,+2.627960E-06
+464.2554E-03,+2.629649E-06
+469.3927E-03,+2.629784E-06
+474.2949E-03,+2.627832E-06
+479.1920E-03,+2.625884E-06
+484.3322E-03,+2.629328E-06
+489.2530E-03,+2.630121E-06
+494.3838E-03,+2.625211E-06
+499.3545E-03,+2.626512E-06

MicroMag 2900/3900 Data File ends
