MicroMag 2900/3900 Data File (Series 0016.002)
Direct moment vs. field; Hysteresis loop

INSTRUMENT
Configuration                   VSM
Temperature control             None
Hardware version                0004
Software version                06/08/2012
Units of measure                Hybrid SI
Temperature in                  Kelvin

SAMPLE
Mass                            N/A
Volume                          N/A
Demagnetizing factor            N/A

SETTINGS
Field range                    +1.000000E+00
Field (command)                 N/A
Moment range                   +5.000000E-06
Averaging time                 +200.0000E-03
Temperature (command)           N/A
Tmprtr difference correction    No
Orientation                     0.000000E+00
Vibration amplitude             1.0
Calibration factor             +3.570920E+00
Operating frequency            +83.00000E+00
Sweep mode                      Discrete
Pause after sweep increment    +300.0000E-03

MEASUREMENT
Description                    "DQ15-33B1"
Field (measured)                N/A
Temperature (measured)          N/A
Averages (completed)            1
Measured on                     10/29/2016  16:42
Elapsed time                   +206.9707E+00

PROCESSING
Background subtraction          No
Delta-m processing              N/A
Demagnetizing factor            No
Normalization                   No
Normalization factor            N/A
Offset (field)                  No
Offset (moment)                 No
Pole saturation                 No
Slope correction                No

VIEWPORT
Left                           -500.0000E-03
Right                          +500.0000E-03
Bottom                         -5.000000E-06
Top                            +5.000000E-06
Show X-axis?                    Yes
Show Y-axis?                    Yes

CHARACTERIZATION
Initial slope                   N/A
Saturation                     +2.645228E-06
Remanence                      +122.7451E-09
Coercivity                     +4.124634E-03
S*                             +22.39277E-06

SCRIPT
Averages (target)               1
Averaging time                 +200.0000E-03
Demagnetize?                    No
Maximum field                  +500.0000E-03
Field increment                +5.000000E-03
Hysteresis loop?                Yes
Initial magnetization?          No
Pause                          +1.000000E+00
Saturate before measuring?      No
Number of segments              2
Number of data                  402

Segment   Averaging      Initial        Field         Final                    Final 
 Number      Time         Field       Increment       Field         Pause      Index 
             (s)           (T)           (T)           (T)           (s)     
0000001,+200.0000E-03,+500.0000E-03,+5.000000E-03,-500.0000E-03,+1.000000E+00,0000201
0000002,+200.0000E-03,-500.0000E-03,+5.000000E-03,+500.0000E-03,+1.000000E+00,0000402

                           
    Field         Moment   
     (T)          (Am²)    
+499.3479E-03,+2.644634E-06
+494.5650E-03,+2.649939E-06
+489.4685E-03,+2.645654E-06
+484.5487E-03,+2.650084E-06
+479.3991E-03,+2.650317E-06
+474.4926E-03,+2.649918E-06
+469.5819E-03,+2.651766E-06
+464.4521E-03,+2.652984E-06
+459.5420E-03,+2.653650E-06
+454.4014E-03,+2.651076E-06
+449.4905E-03,+2.651075E-06
+444.6011E-03,+2.651241E-06
+439.4536E-03,+2.654300E-06
+434.5465E-03,+2.653992E-06
+429.6403E-03,+2.653080E-06
+424.4967E-03,+2.651597E-06
+419.6109E-03,+2.649828E-06
+414.4654E-03,+2.647600E-06
+409.5566E-03,+2.651679E-06
+404.6473E-03,+2.654322E-06
+399.5119E-03,+2.654669E-06
+394.6069E-03,+2.655474E-06
+389.4505E-03,+2.656329E-06
+384.5610E-03,+2.649809E-06
+379.6736E-03,+2.657458E-06
+374.5231E-03,+2.656107E-06
+369.6156E-03,+2.654859E-06
+364.4822E-03,+2.650361E-06
+359.5800E-03,+2.652722E-06
+354.6717E-03,+2.651040E-06
+349.5240E-03,+2.653743E-06
+344.6331E-03,+2.649705E-06
+339.7341E-03,+2.651843E-06
+334.5872E-03,+2.650563E-06
+329.6922E-03,+2.650162E-06
+324.5547E-03,+2.648980E-06
+319.6562E-03,+2.649259E-06
+314.7539E-03,+2.644998E-06
+309.6046E-03,+2.645131E-06
+304.7098E-03,+2.644348E-06
+299.5724E-03,+2.645989E-06
+294.6624E-03,+2.638860E-06
+289.7721E-03,+2.641199E-06
+284.6293E-03,+2.636039E-06
+279.7085E-03,+2.637222E-06
+274.5796E-03,+2.635443E-06
+269.6698E-03,+2.629872E-06
+264.7687E-03,+2.632834E-06
+259.6264E-03,+2.630782E-06
+254.7330E-03,+2.619686E-06
+249.8343E-03,+2.620920E-06
+244.6956E-03,+2.619410E-06
+239.7930E-03,+2.613528E-06
+234.6460E-03,+2.614011E-06
+229.7460E-03,+2.611957E-06
+224.8516E-03,+2.596391E-06
+219.7028E-03,+2.592379E-06
+214.8044E-03,+2.591653E-06
+209.6642E-03,+2.586245E-06
+204.7613E-03,+2.578832E-06
+199.8573E-03,+2.576083E-06
+194.7237E-03,+2.562960E-06
+189.8162E-03,+2.551914E-06
+184.6673E-03,+2.547450E-06
+179.7877E-03,+2.533794E-06
+174.8858E-03,+2.520977E-06
+169.7280E-03,+2.512512E-06
+164.8353E-03,+2.501417E-06
+159.6964E-03,+2.481950E-06
+154.7763E-03,+2.463739E-06
+149.8872E-03,+2.445140E-06
+144.7550E-03,+2.418186E-06
+139.8458E-03,+2.404397E-06
+134.9543E-03,+2.374417E-06
+129.8113E-03,+2.348084E-06
+124.9061E-03,+2.323684E-06
+119.7661E-03,+2.278884E-06
+114.8751E-03,+2.246438E-06
+109.9648E-03,+2.206548E-06
+104.8164E-03,+2.147357E-06
+99.92106E-03,+2.118058E-06
+94.78752E-03,+2.056264E-06
+89.87727E-03,+2.000347E-06
+84.98418E-03,+1.931656E-06
+79.84169E-03,+1.861780E-06
+74.92977E-03,+1.803615E-06
+69.78919E-03,+1.728347E-06
+64.89167E-03,+1.641044E-06
+59.98622E-03,+1.552826E-06
+54.85276E-03,+1.460504E-06
+49.94960E-03,+1.354156E-06
+45.05387E-03,+1.263508E-06
+39.90915E-03,+1.152306E-06
+35.01293E-03,+1.047667E-06
+29.85599E-03,+934.8204E-09
+24.96513E-03,+814.7179E-09
+20.05641E-03,+690.5634E-09
+14.92379E-03,+558.9965E-09
+10.03959E-03,+425.5202E-09
+4.897950E-03,+267.7425E-09
-5.130888E-06,+127.7871E-09
-4.878357E-03,-16.76754E-09
-10.01324E-03,-170.9782E-09
-14.91635E-03,-322.1967E-09
-20.06814E-03,-468.9475E-09
-24.96131E-03,-633.1483E-09
-29.86185E-03,-763.1193E-09
-35.02817E-03,-906.9869E-09
-39.90626E-03,-1.032649E-06
-45.04979E-03,-1.154672E-06
-49.94230E-03,-1.261150E-06
-54.85209E-03,-1.379384E-06
-59.98723E-03,-1.487101E-06
-64.89155E-03,-1.575247E-06
-69.78818E-03,-1.665529E-06
-74.92767E-03,-1.743987E-06
-79.83357E-03,-1.829127E-06
-84.97351E-03,-1.896910E-06
-89.85595E-03,-1.959510E-06
-94.77429E-03,-2.012846E-06
-99.92465E-03,-2.083543E-06
-104.8198E-03,-2.138225E-06
-109.9637E-03,-2.180875E-06
-114.8659E-03,-2.221143E-06
-119.7511E-03,-2.248142E-06
-124.8971E-03,-2.295419E-06
-129.8064E-03,-2.340799E-06
-134.9312E-03,-2.359247E-06
-139.8365E-03,-2.389510E-06
-144.7382E-03,-2.420454E-06
-149.8753E-03,-2.435112E-06
-154.7718E-03,-2.442235E-06
-159.6872E-03,-2.483545E-06
-164.8318E-03,-2.487585E-06
-169.7092E-03,-2.507736E-06
-174.8729E-03,-2.518149E-06
-179.7653E-03,-2.529092E-06
-184.6697E-03,-2.547745E-06
-189.8122E-03,-2.553124E-06
-194.7017E-03,-2.568318E-06
-199.8396E-03,-2.566401E-06
-204.7555E-03,-2.569632E-06
-209.6520E-03,-2.578192E-06
-214.7814E-03,-2.583835E-06
-219.6870E-03,-2.593641E-06
-224.8278E-03,-2.608045E-06
-229.7212E-03,-2.600196E-06
-234.6280E-03,-2.607867E-06
-239.7834E-03,-2.618303E-06
-244.6670E-03,-2.606861E-06
-249.8147E-03,-2.616351E-06
-254.7120E-03,-2.625330E-06
-259.6087E-03,-2.620797E-06
-264.7457E-03,-2.627168E-06
-269.6533E-03,-2.643494E-06
-274.5441E-03,-2.635518E-06
-279.6822E-03,-2.621123E-06
-284.6022E-03,-2.637109E-06
-289.7374E-03,-2.637097E-06
-294.6173E-03,-2.630836E-06
-299.5394E-03,-2.639211E-06
-304.6656E-03,-2.637220E-06
-309.5807E-03,-2.640345E-06
-314.7113E-03,-2.642306E-06
-319.6155E-03,-2.642061E-06
-324.5099E-03,-2.641369E-06
-329.6528E-03,-2.643510E-06
-334.5694E-03,-2.644472E-06
-339.6820E-03,-2.647830E-06
-344.5893E-03,-2.648901E-06
-349.4907E-03,-2.650142E-06
-354.6298E-03,-2.645994E-06
-359.5311E-03,-2.648462E-06
-364.4453E-03,-2.650180E-06
-369.5885E-03,-2.644788E-06
-374.4715E-03,-2.646999E-06
-379.6134E-03,-2.647670E-06
-384.5231E-03,-2.648325E-06
-389.4179E-03,-2.643188E-06
-394.5704E-03,-2.654567E-06
-399.4526E-03,-2.651391E-06
-404.5903E-03,-2.645711E-06
-409.5177E-03,-2.651012E-06
-414.4034E-03,-2.645688E-06
-419.5299E-03,-2.647879E-06
-424.4246E-03,-2.644504E-06
-429.5638E-03,-2.655718E-06
-434.4688E-03,-2.650143E-06
-439.3739E-03,-2.644814E-06
-444.5193E-03,-2.647303E-06
-449.4133E-03,-2.650586E-06
-454.3084E-03,-2.645389E-06
-459.4545E-03,-2.649869E-06
-464.3551E-03,-2.647087E-06
-469.4919E-03,-2.652048E-06
-474.4043E-03,-2.646759E-06
-479.3032E-03,-2.645894E-06
-484.4265E-03,-2.644573E-06
-489.3527E-03,-2.647626E-06
-494.4834E-03,-2.645734E-06
-499.4447E-03,-2.644220E-06

-499.4509E-03,-2.642857E-06
-494.6823E-03,-2.643019E-06
-489.5803E-03,-2.640764E-06
-484.6621E-03,-2.646543E-06
-479.5264E-03,-2.646621E-06
-474.6133E-03,-2.649359E-06
-469.6870E-03,-2.646938E-06
-464.5559E-03,-2.649781E-06
-459.6578E-03,-2.648955E-06
-454.5009E-03,-2.649859E-06
-449.5952E-03,-2.647535E-06
-444.6989E-03,-2.649075E-06
-439.5565E-03,-2.652199E-06
-434.6504E-03,-2.647833E-06
-429.7463E-03,-2.651395E-06
-424.6038E-03,-2.650583E-06
-419.7021E-03,-2.651450E-06
-414.5684E-03,-2.656261E-06
-409.6626E-03,-2.650413E-06
-404.7507E-03,-2.653570E-06
-399.6258E-03,-2.651559E-06
-394.7309E-03,-2.650032E-06
-389.5697E-03,-2.645217E-06
-384.6738E-03,-2.652161E-06
-379.7779E-03,-2.645768E-06
-374.6143E-03,-2.651835E-06
-369.7209E-03,-2.647578E-06
-364.5895E-03,-2.645756E-06
-359.6847E-03,-2.649372E-06
-354.7639E-03,-2.651470E-06
-349.6341E-03,-2.647818E-06
-344.7249E-03,-2.647839E-06
-339.8258E-03,-2.648038E-06
-334.7049E-03,-2.644838E-06
-329.7862E-03,-2.644293E-06
-324.6428E-03,-2.643415E-06
-319.7534E-03,-2.642653E-06
-314.8464E-03,-2.648053E-06
-309.7090E-03,-2.640388E-06
-304.8080E-03,-2.640265E-06
-299.6725E-03,-2.637640E-06
-294.7413E-03,-2.639121E-06
-289.8698E-03,-2.638501E-06
-284.7296E-03,-2.637980E-06
-279.8035E-03,-2.633770E-06
-274.6752E-03,-2.624477E-06
-269.7681E-03,-2.628426E-06
-264.8814E-03,-2.629389E-06
-259.7321E-03,-2.627620E-06
-254.8300E-03,-2.616308E-06
-249.9373E-03,-2.617933E-06
-244.7909E-03,-2.611496E-06
-239.9011E-03,-2.612019E-06
-234.7536E-03,-2.603457E-06
-229.8461E-03,-2.603691E-06
-224.9549E-03,-2.596565E-06
-219.8166E-03,-2.592893E-06
-214.9036E-03,-2.586362E-06
-209.7627E-03,-2.581924E-06
-204.8718E-03,-2.576783E-06
-199.9468E-03,-2.570688E-06
-194.8184E-03,-2.559612E-06
-189.9334E-03,-2.549487E-06
-184.7828E-03,-2.541342E-06
-179.8908E-03,-2.529820E-06
-174.9811E-03,-2.517387E-06
-169.8295E-03,-2.506385E-06
-164.9399E-03,-2.497502E-06
-159.7977E-03,-2.478240E-06
-154.8862E-03,-2.454085E-06
-149.9822E-03,-2.437892E-06
-144.8467E-03,-2.422421E-06
-139.9434E-03,-2.394640E-06
-135.0402E-03,-2.368703E-06
-129.9184E-03,-2.346751E-06
-125.0078E-03,-2.313355E-06
-119.8610E-03,-2.275830E-06
-114.9687E-03,-2.235549E-06
-110.0768E-03,-2.203241E-06
-104.9306E-03,-2.151596E-06
-100.0293E-03,-2.107396E-06
-94.89014E-03,-2.050744E-06
-89.97430E-03,-1.989582E-06
-85.07250E-03,-1.931476E-06
-79.94547E-03,-1.860950E-06
-75.02487E-03,-1.787230E-06
-69.90200E-03,-1.720392E-06
-64.99250E-03,-1.625981E-06
-60.09869E-03,-1.543114E-06
-54.95524E-03,-1.443414E-06
-50.05127E-03,-1.362300E-06
-45.15870E-03,-1.263255E-06
-40.02232E-03,-1.145311E-06
-35.11778E-03,-1.043315E-06
-29.97071E-03,-923.6276E-09
-25.06453E-03,-808.3414E-09
-20.16606E-03,-678.7016E-09
-15.02824E-03,-548.5953E-09
-10.11781E-03,-406.7767E-09
-4.983143E-03,-260.8778E-09
-118.9564E-06,-121.1094E-09
+4.799234E-03,+25.77575E-09
+9.932509E-03,+191.2310E-09
+14.81533E-03,+325.0174E-09
+19.95463E-03,+493.4039E-09
+24.85871E-03,+638.5370E-09
+29.74437E-03,+769.1329E-09
+34.90590E-03,+909.1272E-09
+39.81106E-03,+1.032880E-06
+44.93954E-03,+1.153924E-06
+49.84315E-03,+1.267889E-06
+54.75056E-03,+1.373310E-06
+59.88194E-03,+1.488627E-06
+64.79277E-03,+1.573976E-06
+69.68826E-03,+1.670109E-06
+74.81854E-03,+1.748207E-06
+79.73903E-03,+1.831761E-06
+84.87098E-03,+1.916811E-06
+89.77038E-03,+1.972473E-06
+94.67472E-03,+2.047570E-06
+99.81263E-03,+2.091166E-06
+104.7085E-03,+2.143103E-06
+109.8552E-03,+2.193276E-06
+114.7570E-03,+2.235876E-06
+119.6569E-03,+2.274204E-06
+124.7982E-03,+2.315254E-06
+129.6979E-03,+2.343284E-06
+134.8259E-03,+2.386183E-06
+139.7314E-03,+2.398502E-06
+144.6268E-03,+2.428599E-06
+149.7716E-03,+2.447961E-06
+154.6670E-03,+2.456501E-06
+159.5864E-03,+2.477275E-06
+164.7261E-03,+2.506808E-06
+169.6129E-03,+2.502547E-06
+174.7685E-03,+2.516780E-06
+179.6732E-03,+2.533745E-06
+184.5466E-03,+2.535698E-06
+189.7048E-03,+2.559252E-06
+194.6120E-03,+2.571243E-06
+199.7387E-03,+2.579190E-06
+204.6396E-03,+2.586932E-06
+209.5462E-03,+2.583335E-06
+214.6860E-03,+2.595821E-06
+219.5851E-03,+2.594349E-06
+224.7289E-03,+2.613739E-06
+229.6238E-03,+2.601784E-06
+234.5173E-03,+2.618181E-06
+239.6714E-03,+2.614928E-06
+244.5703E-03,+2.625490E-06
+249.7049E-03,+2.617197E-06
+254.6062E-03,+2.624365E-06
+259.5011E-03,+2.621779E-06
+264.6425E-03,+2.626290E-06
+269.5417E-03,+2.634055E-06
+274.4473E-03,+2.637119E-06
+279.5738E-03,+2.637467E-06
+284.4985E-03,+2.641695E-06
+289.6384E-03,+2.639697E-06
+294.5258E-03,+2.637338E-06
+299.4305E-03,+2.641869E-06
+304.5724E-03,+2.650807E-06
+309.4673E-03,+2.646927E-06
+314.6059E-03,+2.641751E-06
+319.5079E-03,+2.649765E-06
+324.4091E-03,+2.647613E-06
+329.5524E-03,+2.639288E-06
+334.4426E-03,+2.653327E-06
+339.5801E-03,+2.649011E-06
+344.4869E-03,+2.657957E-06
+349.3865E-03,+2.654978E-06
+354.5243E-03,+2.642580E-06
+359.4267E-03,+2.652857E-06
+364.3399E-03,+2.653567E-06
+369.4696E-03,+2.651286E-06
+374.3643E-03,+2.655012E-06
+379.5165E-03,+2.658619E-06
+384.4251E-03,+2.650447E-06
+389.2960E-03,+2.660666E-06
+394.4496E-03,+2.655148E-06
+399.3536E-03,+2.651929E-06
+404.4853E-03,+2.654673E-06
+409.3877E-03,+2.652643E-06
+414.2818E-03,+2.656697E-06
+419.4277E-03,+2.648881E-06
+424.3301E-03,+2.649174E-06
+429.4673E-03,+2.650831E-06
+434.3623E-03,+2.652578E-06
+439.2721E-03,+2.657260E-06
+444.4208E-03,+2.652807E-06
+449.2997E-03,+2.649263E-06
+454.2025E-03,+2.654974E-06
+459.3386E-03,+2.650794E-06
+464.2356E-03,+2.650947E-06
+469.3715E-03,+2.648873E-06
+474.2818E-03,+2.648865E-06
+479.1725E-03,+2.649413E-06
+484.3130E-03,+2.652342E-06
+489.2334E-03,+2.650438E-06
+494.3708E-03,+2.649170E-06
+499.3351E-03,+2.644985E-06

MicroMag 2900/3900 Data File ends
