MicroMag 2900/3900 Data File (Series 0016.002)
Direct moment vs. field; Hysteresis loop

INSTRUMENT
Configuration                   VSM
Temperature control             None
Hardware version                0004
Software version                06/08/2012
Units of measure                Hybrid SI
Temperature in                  Kelvin

SAMPLE
Mass                            N/A
Volume                          N/A
Demagnetizing factor            N/A

SETTINGS
Field range                    +1.000000E+00
Field (command)                 N/A
Moment range                   +5.000000E-06
Averaging time                 +100.0000E-03
Temperature (command)           N/A
Tmprtr difference correction    No
Orientation                     0.000000E+00
Vibration amplitude             1.0
Calibration factor             +3.570920E+00
Operating frequency            +83.00000E+00
Sweep mode                      Discrete
Pause after sweep increment    +300.0000E-03

MEASUREMENT
Description                    "DQ15-33B1"
Field (measured)                N/A
Temperature (measured)          N/A
Averages (completed)            1
Measured on                     10/29/2016  12:52
Elapsed time                   +166.8049E+00

PROCESSING
Background subtraction          No
Delta-m processing              N/A
Demagnetizing factor            No
Normalization                   No
Normalization factor            N/A
Offset (field)                  No
Offset (moment)                 No
Pole saturation                 No
Slope correction                No

VIEWPORT
Left                           -500.0000E-03
Right                          +500.0000E-03
Bottom                         -5.000000E-06
Top                            +5.000000E-06
Show X-axis?                    Yes
Show Y-axis?                    Yes

CHARACTERIZATION
Initial slope                   N/A
Saturation                     +2.600118E-06
Remanence                      +130.6032E-09
Coercivity                     +4.272650E-03
S*                             -3.222098E-03

SCRIPT
Averages (target)               1
Averaging time                 +100.0000E-03
Demagnetize?                    No
Maximum field                  +500.0000E-03
Field increment                +5.000000E-03
Hysteresis loop?                Yes
Initial magnetization?          No
Pause                          +1.000000E+00
Saturate before measuring?      No
Number of segments              2
Number of data                  402

Segment   Averaging      Initial        Field         Final                    Final 
 Number      Time         Field       Increment       Field         Pause      Index 
             (s)           (T)           (T)           (T)           (s)     
0000001,+100.0000E-03,+500.0000E-03,+5.000000E-03,-500.0000E-03,+1.000000E+00,0000201
0000002,+100.0000E-03,-500.0000E-03,+5.000000E-03,+500.0000E-03,+1.000000E+00,0000402

                           
    Field         Moment   
     (T)          (Am²)    
+499.3755E-03,+2.599814E-06
+494.5941E-03,+2.605753E-06
+489.5239E-03,+2.605574E-06
+484.6061E-03,+2.598702E-06
+479.4646E-03,+2.602551E-06
+474.5582E-03,+2.603697E-06
+469.6432E-03,+2.609359E-06
+464.5224E-03,+2.610284E-06
+459.6161E-03,+2.602569E-06
+454.4552E-03,+2.606665E-06
+449.5433E-03,+2.608839E-06
+444.6571E-03,+2.612732E-06
+439.5235E-03,+2.607507E-06
+434.6121E-03,+2.604329E-06
+429.6980E-03,+2.602034E-06
+424.5521E-03,+2.609402E-06
+419.6589E-03,+2.605624E-06
+414.5153E-03,+2.603444E-06
+409.6057E-03,+2.611309E-06
+404.7089E-03,+2.605804E-06
+399.5611E-03,+2.610714E-06
+394.6598E-03,+2.606534E-06
+389.4961E-03,+2.604711E-06
+384.6140E-03,+2.606691E-06
+379.7217E-03,+2.603803E-06
+374.5643E-03,+2.608946E-06
+369.6732E-03,+2.602847E-06
+364.5450E-03,+2.611528E-06
+359.6201E-03,+2.607390E-06
+354.7117E-03,+2.606918E-06
+349.5813E-03,+2.607560E-06
+344.6917E-03,+2.607634E-06
+339.7694E-03,+2.599666E-06
+334.6359E-03,+2.603240E-06
+329.7285E-03,+2.603166E-06
+324.5922E-03,+2.599113E-06
+319.6833E-03,+2.603579E-06
+314.8257E-03,+2.602711E-06
+309.6444E-03,+2.596729E-06
+304.7490E-03,+2.600244E-06
+299.6157E-03,+2.598352E-06
+294.6942E-03,+2.599386E-06
+289.8235E-03,+2.596274E-06
+284.6752E-03,+2.596156E-06
+279.7460E-03,+2.592728E-06
+274.5829E-03,+2.586510E-06
+269.7059E-03,+2.587103E-06
+264.8032E-03,+2.584420E-06
+259.6684E-03,+2.584537E-06
+254.7692E-03,+2.576871E-06
+249.8673E-03,+2.579363E-06
+244.7328E-03,+2.572071E-06
+239.8069E-03,+2.570348E-06
+234.6744E-03,+2.567032E-06
+229.7738E-03,+2.560919E-06
+224.8653E-03,+2.557157E-06
+219.7293E-03,+2.552887E-06
+214.8309E-03,+2.545073E-06
+209.6844E-03,+2.539976E-06
+204.7766E-03,+2.530737E-06
+199.8792E-03,+2.527877E-06
+194.7608E-03,+2.510496E-06
+189.8332E-03,+2.509920E-06
+184.6895E-03,+2.504324E-06
+179.8580E-03,+2.496672E-06
+174.9057E-03,+2.473892E-06
+169.7527E-03,+2.468878E-06
+164.8674E-03,+2.451831E-06
+159.7219E-03,+2.441322E-06
+154.8053E-03,+2.423621E-06
+149.8991E-03,+2.397797E-06
+144.7704E-03,+2.378692E-06
+139.8376E-03,+2.371099E-06
+134.9650E-03,+2.330868E-06
+129.8361E-03,+2.311262E-06
+124.9174E-03,+2.276736E-06
+119.7712E-03,+2.236226E-06
+114.8894E-03,+2.210355E-06
+109.9857E-03,+2.167126E-06
+104.8453E-03,+2.108721E-06
+99.93359E-03,+2.071933E-06
+94.79674E-03,+2.027957E-06
+89.88407E-03,+1.963473E-06
+84.99930E-03,+1.891675E-06
+79.86724E-03,+1.829129E-06
+74.94453E-03,+1.753954E-06
+69.80263E-03,+1.696040E-06
+64.92441E-03,+1.618281E-06
+59.99668E-03,+1.532997E-06
+54.86113E-03,+1.438966E-06
+49.93765E-03,+1.353350E-06
+45.06823E-03,+1.240054E-06
+39.92158E-03,+1.142837E-06
+35.02440E-03,+1.041013E-06
+29.88463E-03,+913.9295E-09
+24.98477E-03,+796.5326E-09
+20.05535E-03,+680.0980E-09
+14.92304E-03,+534.4674E-09
+10.03509E-03,+420.0819E-09
+4.901427E-03,+272.3778E-09
+9.194506E-06,+135.7727E-09
-4.860633E-03,-9.851562E-09
-10.01060E-03,-146.9328E-09
-14.91453E-03,-322.4863E-09
-20.05181E-03,-478.3789E-09
-24.94533E-03,-603.7513E-09
-29.86091E-03,-752.8243E-09
-35.02632E-03,-867.1770E-09
-39.89394E-03,-1.005192E-06
-45.02694E-03,-1.123910E-06
-49.94182E-03,-1.242473E-06
-54.85250E-03,-1.339852E-06
-59.98784E-03,-1.455039E-06
-64.89129E-03,-1.542377E-06
-69.78876E-03,-1.638110E-06
-74.91919E-03,-1.707390E-06
-79.83857E-03,-1.805124E-06
-84.97142E-03,-1.868125E-06
-89.86112E-03,-1.931303E-06
-94.76298E-03,-1.987559E-06
-99.90873E-03,-2.048259E-06
-104.8034E-03,-2.079015E-06
-109.9609E-03,-2.158086E-06
-114.8532E-03,-2.175216E-06
-119.7540E-03,-2.225539E-06
-124.8864E-03,-2.264888E-06
-129.7938E-03,-2.295349E-06
-134.9271E-03,-2.309466E-06
-139.8273E-03,-2.344484E-06
-144.7417E-03,-2.365907E-06
-149.8751E-03,-2.390145E-06
-154.7797E-03,-2.423440E-06
-159.6939E-03,-2.437083E-06
-164.8324E-03,-2.443286E-06
-169.7153E-03,-2.465129E-06
-174.8824E-03,-2.477932E-06
-179.7777E-03,-2.487678E-06
-184.6692E-03,-2.515721E-06
-189.7992E-03,-2.514309E-06
-194.6974E-03,-2.517068E-06
-199.8204E-03,-2.511643E-06
-204.7561E-03,-2.544122E-06
-209.6536E-03,-2.537598E-06
-214.7904E-03,-2.553874E-06
-219.6803E-03,-2.546688E-06
-224.8397E-03,-2.560314E-06
-229.7119E-03,-2.562713E-06
-234.6609E-03,-2.556233E-06
-239.7861E-03,-2.559940E-06
-244.6734E-03,-2.570124E-06
-249.8155E-03,-2.577839E-06
-254.7262E-03,-2.580696E-06
-259.6273E-03,-2.581284E-06
-264.7517E-03,-2.584694E-06
-269.6576E-03,-2.587673E-06
-274.5678E-03,-2.584579E-06
-279.6990E-03,-2.604996E-06
-284.6150E-03,-2.594258E-06
-289.7427E-03,-2.586998E-06
-294.6303E-03,-2.570689E-06
-299.5425E-03,-2.594552E-06
-304.6808E-03,-2.596187E-06
-309.5744E-03,-2.585342E-06
-314.7249E-03,-2.603532E-06
-319.6306E-03,-2.604529E-06
-324.5334E-03,-2.597784E-06
-329.6677E-03,-2.602535E-06
-334.5696E-03,-2.604065E-06
-339.7033E-03,-2.605497E-06
-344.6014E-03,-2.603914E-06
-349.5077E-03,-2.591007E-06
-354.6457E-03,-2.605704E-06
-359.5525E-03,-2.602526E-06
-364.4572E-03,-2.598463E-06
-369.5920E-03,-2.606794E-06
-374.4802E-03,-2.600584E-06
-379.6318E-03,-2.600556E-06
-384.5286E-03,-2.598566E-06
-389.4353E-03,-2.608197E-06
-394.5855E-03,-2.598726E-06
-399.4395E-03,-2.600143E-06
-404.6008E-03,-2.602477E-06
-409.5242E-03,-2.602866E-06
-414.4205E-03,-2.614192E-06
-419.5631E-03,-2.602617E-06
-424.4223E-03,-2.600749E-06
-429.6013E-03,-2.598949E-06
-434.4932E-03,-2.604419E-06
-439.4009E-03,-2.610234E-06
-444.5484E-03,-2.598521E-06
-449.4306E-03,-2.599513E-06
-454.3225E-03,-2.602679E-06
-459.4729E-03,-2.604791E-06
-464.3849E-03,-2.606626E-06
-469.5186E-03,-2.601244E-06
-474.4163E-03,-2.593743E-06
-479.3262E-03,-2.595818E-06
-484.4466E-03,-2.598327E-06
-489.3784E-03,-2.599207E-06
-494.4979E-03,-2.604732E-06
-499.4885E-03,-2.599388E-06

-499.4875E-03,-2.599153E-06
-494.7288E-03,-2.593917E-06
-489.6421E-03,-2.603370E-06
-484.7212E-03,-2.599306E-06
-479.6029E-03,-2.601104E-06
-474.6889E-03,-2.603943E-06
-469.7563E-03,-2.599723E-06
-464.6202E-03,-2.603992E-06
-459.7229E-03,-2.607671E-06
-454.5551E-03,-2.607179E-06
-449.6620E-03,-2.601950E-06
-444.7683E-03,-2.598421E-06
-439.6166E-03,-2.603007E-06
-434.7084E-03,-2.606773E-06
-429.7977E-03,-2.604726E-06
-424.6652E-03,-2.599509E-06
-419.7542E-03,-2.601491E-06
-414.6229E-03,-2.604241E-06
-409.7109E-03,-2.606451E-06
-404.8047E-03,-2.606332E-06
-399.6639E-03,-2.602586E-06
-394.7790E-03,-2.605278E-06
-389.6291E-03,-2.606106E-06
-384.7205E-03,-2.602557E-06
-379.8348E-03,-2.606678E-06
-374.6683E-03,-2.603329E-06
-369.7725E-03,-2.607861E-06
-364.6383E-03,-2.606431E-06
-359.7276E-03,-2.602237E-06
-354.8250E-03,-2.600548E-06
-349.6854E-03,-2.604860E-06
-344.7818E-03,-2.605197E-06
-339.8829E-03,-2.602501E-06
-334.7817E-03,-2.595762E-06
-329.8394E-03,-2.603218E-06
-324.6889E-03,-2.598612E-06
-319.7970E-03,-2.593427E-06
-314.9054E-03,-2.596632E-06
-309.7565E-03,-2.594264E-06
-304.8484E-03,-2.592262E-06
-299.7154E-03,-2.590557E-06
-294.8000E-03,-2.588581E-06
-289.9059E-03,-2.591206E-06
-284.7641E-03,-2.586504E-06
-279.8513E-03,-2.585652E-06
-274.7119E-03,-2.588739E-06
-269.8189E-03,-2.587075E-06
-264.9142E-03,-2.576592E-06
-259.7769E-03,-2.581065E-06
-254.8649E-03,-2.573606E-06
-249.9662E-03,-2.569358E-06
-244.8323E-03,-2.573494E-06
-239.9396E-03,-2.562631E-06
-234.7910E-03,-2.558205E-06
-229.8826E-03,-2.559081E-06
-224.9980E-03,-2.559727E-06
-219.8485E-03,-2.554129E-06
-214.9278E-03,-2.541456E-06
-209.7929E-03,-2.539013E-06
-204.8910E-03,-2.530099E-06
-199.9800E-03,-2.521009E-06
-194.8470E-03,-2.515602E-06
-189.9515E-03,-2.499798E-06
-184.8173E-03,-2.488414E-06
-179.9158E-03,-2.479208E-06
-175.0130E-03,-2.482480E-06
-169.8584E-03,-2.463535E-06
-164.9664E-03,-2.446693E-06
-159.8318E-03,-2.437522E-06
-154.9069E-03,-2.417631E-06
-150.0187E-03,-2.400181E-06
-144.8747E-03,-2.381956E-06
-139.9682E-03,-2.350643E-06
-135.0746E-03,-2.331365E-06
-129.9178E-03,-2.294921E-06
-125.0189E-03,-2.266251E-06
-119.8716E-03,-2.239299E-06
-114.9880E-03,-2.199391E-06
-110.0843E-03,-2.157434E-06
-104.9513E-03,-2.102994E-06
-100.0591E-03,-2.072361E-06
-94.90509E-03,-2.017112E-06
-90.00224E-03,-1.955432E-06
-85.10537E-03,-1.899380E-06
-79.96147E-03,-1.837208E-06
-75.04132E-03,-1.758819E-06
-69.92847E-03,-1.672176E-06
-65.00706E-03,-1.607410E-06
-60.11305E-03,-1.517744E-06
-54.98497E-03,-1.418745E-06
-50.07208E-03,-1.340693E-06
-45.17343E-03,-1.235012E-06
-40.03095E-03,-1.130420E-06
-35.12227E-03,-1.016817E-06
-29.97852E-03,-890.5822E-09
-25.08087E-03,-789.8228E-09
-20.17019E-03,-666.9228E-09
-15.03189E-03,-528.8589E-09
-10.13049E-03,-402.9496E-09
-4.971227E-03,-253.3690E-09
-132.6697E-06,-129.8636E-09
+4.792656E-03,+24.38139E-09
+9.927233E-03,+175.7542E-09
+14.81633E-03,+328.2140E-09
+19.94593E-03,+477.6746E-09
+24.84240E-03,+613.4882E-09
+29.72930E-03,+754.4484E-09
+34.90775E-03,+900.3016E-09
+39.77757E-03,+1.012969E-06
+44.93691E-03,+1.121628E-06
+49.86370E-03,+1.258290E-06
+54.73921E-03,+1.356166E-06
+59.88036E-03,+1.469497E-06
+64.78491E-03,+1.549230E-06
+69.67413E-03,+1.630339E-06
+74.83696E-03,+1.732439E-06
+79.73358E-03,+1.810506E-06
+84.86883E-03,+1.869945E-06
+89.76078E-03,+1.948273E-06
+94.66878E-03,+1.998658E-06
+99.81439E-03,+2.047600E-06
+104.6961E-03,+2.093682E-06
+109.8529E-03,+2.165071E-06
+114.7763E-03,+2.189345E-06
+119.6490E-03,+2.242680E-06
+124.7976E-03,+2.268835E-06
+129.6917E-03,+2.304599E-06
+134.8333E-03,+2.332959E-06
+139.7257E-03,+2.356107E-06
+144.6361E-03,+2.371017E-06
+149.7529E-03,+2.394625E-06
+154.6640E-03,+2.403524E-06
+159.5872E-03,+2.454644E-06
+164.7249E-03,+2.447430E-06
+169.6179E-03,+2.476544E-06
+174.7564E-03,+2.473222E-06
+179.6670E-03,+2.485922E-06
+184.5495E-03,+2.494704E-06
+189.7060E-03,+2.519412E-06
+194.6060E-03,+2.507893E-06
+199.7324E-03,+2.533682E-06
+204.6432E-03,+2.528209E-06
+209.5505E-03,+2.539533E-06
+214.6855E-03,+2.555623E-06
+219.5829E-03,+2.544446E-06
+224.7328E-03,+2.561041E-06
+229.6226E-03,+2.575344E-06
+234.5309E-03,+2.569087E-06
+239.6607E-03,+2.569328E-06
+244.5673E-03,+2.576567E-06
+249.7181E-03,+2.590631E-06
+254.6164E-03,+2.579166E-06
+259.5061E-03,+2.574366E-06
+264.6640E-03,+2.586027E-06
+269.5517E-03,+2.580006E-06
+274.4480E-03,+2.584820E-06
+279.5899E-03,+2.591639E-06
+284.5143E-03,+2.589898E-06
+289.6490E-03,+2.593407E-06
+294.5427E-03,+2.597099E-06
+299.4464E-03,+2.593307E-06
+304.5807E-03,+2.598882E-06
+309.4590E-03,+2.608714E-06
+314.6240E-03,+2.582784E-06
+319.5189E-03,+2.604845E-06
+324.4094E-03,+2.599766E-06
+329.5622E-03,+2.603196E-06
+334.4525E-03,+2.610282E-06
+339.5819E-03,+2.606298E-06
+344.4438E-03,+2.607954E-06
+349.3989E-03,+2.604163E-06
+354.5436E-03,+2.606616E-06
+359.4455E-03,+2.602419E-06
+364.3400E-03,+2.614848E-06
+369.4734E-03,+2.606944E-06
+374.3692E-03,+2.610439E-06
+379.5278E-03,+2.604866E-06
+384.4285E-03,+2.609267E-06
+389.3020E-03,+2.607037E-06
+394.4494E-03,+2.608294E-06
+399.3785E-03,+2.604734E-06
+404.5044E-03,+2.609417E-06
+409.4500E-03,+2.607849E-06
+414.3094E-03,+2.607193E-06
+419.4396E-03,+2.614643E-06
+424.3642E-03,+2.611050E-06
+429.4651E-03,+2.602906E-06
+434.3772E-03,+2.606461E-06
+439.2893E-03,+2.614387E-06
+444.4247E-03,+2.606216E-06
+449.2933E-03,+2.605983E-06
+454.1884E-03,+2.604310E-06
+459.3535E-03,+2.601879E-06
+464.2537E-03,+2.603169E-06
+469.3769E-03,+2.608492E-06
+474.3000E-03,+2.607662E-06
+479.2072E-03,+2.610936E-06
+484.3304E-03,+2.601410E-06
+489.2359E-03,+2.598717E-06
+494.3705E-03,+2.600495E-06
+499.3573E-03,+2.604146E-06

MicroMag 2900/3900 Data File ends
