MicroMag 2900/3900 Data File (Series 0016.002)
Direct moment vs. field; Hysteresis loop

INSTRUMENT
Configuration                   VSM
Temperature control             None
Hardware version                0004
Software version                06/08/2012
Units of measure                Hybrid SI
Temperature in                  Kelvin

SAMPLE
Mass                            N/A
Volume                          N/A
Demagnetizing factor            N/A

SETTINGS
Field range                    +1.000000E+00
Field (command)                 N/A
Moment range                   +5.000000E-06
Averaging time                 +100.0000E-03
Temperature (command)           N/A
Tmprtr difference correction    No
Orientation                     0.000000E+00
Vibration amplitude             1.0
Calibration factor             +3.570920E+00
Operating frequency            +83.00000E+00
Sweep mode                      Discrete
Pause after sweep increment    +300.0000E-03

MEASUREMENT
Description                    "DQ15-33B1"
Field (measured)                N/A
Temperature (measured)          N/A
Averages (completed)            1
Measured on                     10/29/2016  13:54
Elapsed time                   +166.8088E+00

PROCESSING
Background subtraction          No
Delta-m processing              N/A
Demagnetizing factor            No
Normalization                   No
Normalization factor            N/A
Offset (field)                  No
Offset (moment)                 No
Pole saturation                 No
Slope correction                No

VIEWPORT
Left                           -500.0000E-03
Right                          +500.0000E-03
Bottom                         -5.000000E-06
Top                            +5.000000E-06
Show X-axis?                    Yes
Show Y-axis?                    Yes

CHARACTERIZATION
Initial slope                   N/A
Saturation                     +2.606814E-06
Remanence                      +117.6838E-09
Coercivity                     +4.068369E-03
S*                             -43.89514E-06

SCRIPT
Averages (target)               1
Averaging time                 +100.0000E-03
Demagnetize?                    No
Maximum field                  +500.0000E-03
Field increment                +5.000000E-03
Hysteresis loop?                Yes
Initial magnetization?          No
Pause                          +1.000000E+00
Saturate before measuring?      No
Number of segments              2
Number of data                  402

Segment   Averaging      Initial        Field         Final                    Final 
 Number      Time         Field       Increment       Field         Pause      Index 
             (s)           (T)           (T)           (T)           (s)     
0000001,+100.0000E-03,+500.0000E-03,+5.000000E-03,-500.0000E-03,+1.000000E+00,0000201
0000002,+100.0000E-03,-500.0000E-03,+5.000000E-03,+500.0000E-03,+1.000000E+00,0000402

                           
    Field         Moment   
     (T)          (Am²)    
+499.3777E-03,+2.603088E-06
+494.6091E-03,+2.612610E-06
+489.5102E-03,+2.606653E-06
+484.6061E-03,+2.616523E-06
+479.4643E-03,+2.611802E-06
+474.5607E-03,+2.609722E-06
+469.6406E-03,+2.612656E-06
+464.5000E-03,+2.614932E-06
+459.5946E-03,+2.619792E-06
+454.4520E-03,+2.616295E-06
+449.5405E-03,+2.615144E-06
+444.6483E-03,+2.615481E-06
+439.5090E-03,+2.613558E-06
+434.6027E-03,+2.614602E-06
+429.6892E-03,+2.614846E-06
+424.5542E-03,+2.614578E-06
+419.6425E-03,+2.618152E-06
+414.5112E-03,+2.613206E-06
+409.5884E-03,+2.614991E-06
+404.6927E-03,+2.611373E-06
+399.5673E-03,+2.617309E-06
+394.6595E-03,+2.620579E-06
+389.5035E-03,+2.614383E-06
+384.6061E-03,+2.619439E-06
+379.7141E-03,+2.612243E-06
+374.5480E-03,+2.618386E-06
+369.6704E-03,+2.621879E-06
+364.5250E-03,+2.614973E-06
+359.6448E-03,+2.614906E-06
+354.7111E-03,+2.618149E-06
+349.5848E-03,+2.611579E-06
+344.6876E-03,+2.613713E-06
+339.7615E-03,+2.608807E-06
+334.6362E-03,+2.612813E-06
+329.7376E-03,+2.613220E-06
+324.5991E-03,+2.610566E-06
+319.6895E-03,+2.608488E-06
+314.7912E-03,+2.610963E-06
+309.6496E-03,+2.602947E-06
+304.7537E-03,+2.611828E-06
+299.6127E-03,+2.606131E-06
+294.7061E-03,+2.606773E-06
+289.8167E-03,+2.601689E-06
+284.6678E-03,+2.602097E-06
+279.7449E-03,+2.598647E-06
+274.6171E-03,+2.593187E-06
+269.7088E-03,+2.596606E-06
+264.8092E-03,+2.599208E-06
+259.6520E-03,+2.591125E-06
+254.7666E-03,+2.591185E-06
+249.8711E-03,+2.589272E-06
+244.7253E-03,+2.580507E-06
+239.8279E-03,+2.574552E-06
+234.6741E-03,+2.578408E-06
+229.7858E-03,+2.574494E-06
+224.8732E-03,+2.560414E-06
+219.7349E-03,+2.560715E-06
+214.8284E-03,+2.551657E-06
+209.6964E-03,+2.551659E-06
+204.7838E-03,+2.540803E-06
+199.8752E-03,+2.533948E-06
+194.7568E-03,+2.519888E-06
+189.8496E-03,+2.520085E-06
+184.7125E-03,+2.506059E-06
+179.8115E-03,+2.501506E-06
+174.8938E-03,+2.488053E-06
+169.7501E-03,+2.477774E-06
+164.8664E-03,+2.455226E-06
+159.7378E-03,+2.450418E-06
+154.8041E-03,+2.429966E-06
+149.9070E-03,+2.403620E-06
+144.7636E-03,+2.386962E-06
+139.8684E-03,+2.363367E-06
+134.9743E-03,+2.342553E-06
+129.8318E-03,+2.321224E-06
+124.9172E-03,+2.281058E-06
+119.8005E-03,+2.253577E-06
+114.8798E-03,+2.209304E-06
+109.9823E-03,+2.179340E-06
+104.8356E-03,+2.128046E-06
+99.94163E-03,+2.077219E-06
+94.81337E-03,+2.019872E-06
+89.90459E-03,+1.985863E-06
+84.99919E-03,+1.897079E-06
+79.87350E-03,+1.838250E-06
+74.93860E-03,+1.775873E-06
+69.82159E-03,+1.698792E-06
+64.90695E-03,+1.621937E-06
+60.02365E-03,+1.517080E-06
+54.86535E-03,+1.435418E-06
+49.95462E-03,+1.351910E-06
+45.04892E-03,+1.252676E-06
+39.91148E-03,+1.135411E-06
+35.03874E-03,+1.053028E-06
+29.87425E-03,+915.2813E-09
+24.97602E-03,+794.3839E-09
+20.07652E-03,+678.7566E-09
+14.93414E-03,+547.7406E-09
+10.05086E-03,+400.7937E-09
+4.910212E-03,+279.8677E-09
-3.939418E-06,+124.0023E-09
-4.862016E-03,-16.65609E-09
-10.02037E-03,-149.0608E-09
-14.89482E-03,-315.1924E-09
-20.05046E-03,-473.5504E-09
-24.93735E-03,-605.3838E-09
-29.85045E-03,-758.1502E-09
-35.01739E-03,-885.5220E-09
-39.88980E-03,-1.032253E-06
-45.03408E-03,-1.138535E-06
-49.93350E-03,-1.250679E-06
-54.84519E-03,-1.351904E-06
-59.98791E-03,-1.463161E-06
-64.87584E-03,-1.542120E-06
-69.77763E-03,-1.651445E-06
-74.91633E-03,-1.724080E-06
-79.81180E-03,-1.787627E-06
-84.95722E-03,-1.874472E-06
-89.85760E-03,-1.919494E-06
-94.76357E-03,-1.992539E-06
-99.91775E-03,-2.062452E-06
-104.8103E-03,-2.106967E-06
-109.9538E-03,-2.139748E-06
-114.8501E-03,-2.189183E-06
-119.7422E-03,-2.226110E-06
-124.8857E-03,-2.275920E-06
-129.7930E-03,-2.299800E-06
-134.9259E-03,-2.339162E-06
-139.8291E-03,-2.363486E-06
-144.7342E-03,-2.390875E-06
-149.8596E-03,-2.407430E-06
-154.7573E-03,-2.418786E-06
-159.6782E-03,-2.422876E-06
-164.8184E-03,-2.454439E-06
-169.7202E-03,-2.463038E-06
-174.8674E-03,-2.485974E-06
-179.7662E-03,-2.484479E-06
-184.6546E-03,-2.513664E-06
-189.8028E-03,-2.521990E-06
-194.6952E-03,-2.521764E-06
-199.8306E-03,-2.544604E-06
-204.7527E-03,-2.538252E-06
-209.6443E-03,-2.544790E-06
-214.7738E-03,-2.556077E-06
-219.6820E-03,-2.554614E-06
-224.8235E-03,-2.572916E-06
-229.7115E-03,-2.566138E-06
-234.6234E-03,-2.560018E-06
-239.7803E-03,-2.573989E-06
-244.6796E-03,-2.570712E-06
-249.7988E-03,-2.574428E-06
-254.7107E-03,-2.590557E-06
-259.6133E-03,-2.596165E-06
-264.7492E-03,-2.602124E-06
-269.6435E-03,-2.591432E-06
-274.5437E-03,-2.588673E-06
-279.6852E-03,-2.596237E-06
-284.6015E-03,-2.599641E-06
-289.7418E-03,-2.607573E-06
-294.6187E-03,-2.598774E-06
-299.5431E-03,-2.602132E-06
-304.6670E-03,-2.587579E-06
-309.5744E-03,-2.597099E-06
-314.7351E-03,-2.603549E-06
-319.6212E-03,-2.615100E-06
-324.5234E-03,-2.611757E-06
-329.6488E-03,-2.608530E-06
-334.5664E-03,-2.613059E-06
-339.6796E-03,-2.613080E-06
-344.5792E-03,-2.614760E-06
-349.4948E-03,-2.608344E-06
-354.6395E-03,-2.605303E-06
-359.5441E-03,-2.608094E-06
-364.4435E-03,-2.609017E-06
-369.5820E-03,-2.618132E-06
-374.4718E-03,-2.611514E-06
-379.6327E-03,-2.621004E-06
-384.5193E-03,-2.606114E-06
-389.4292E-03,-2.612390E-06
-394.5728E-03,-2.612456E-06
-399.4661E-03,-2.612495E-06
-404.5987E-03,-2.611822E-06
-409.5033E-03,-2.610751E-06
-414.4100E-03,-2.614081E-06
-419.5358E-03,-2.620008E-06
-424.4428E-03,-2.610566E-06
-429.5737E-03,-2.611079E-06
-434.4786E-03,-2.609716E-06
-439.3838E-03,-2.620107E-06
-444.5252E-03,-2.606821E-06
-449.4213E-03,-2.611055E-06
-454.3245E-03,-2.608669E-06
-459.4656E-03,-2.606170E-06
-464.3668E-03,-2.611302E-06
-469.4942E-03,-2.615879E-06
-474.4163E-03,-2.616045E-06
-479.3181E-03,-2.615961E-06
-484.4312E-03,-2.607361E-06
-489.3617E-03,-2.614288E-06
-494.5051E-03,-2.610046E-06
-499.4770E-03,-2.606954E-06

-499.4905E-03,-2.604104E-06
-494.7228E-03,-2.607080E-06
-489.6425E-03,-2.609923E-06
-484.7252E-03,-2.605920E-06
-479.5776E-03,-2.603293E-06
-474.6828E-03,-2.606197E-06
-469.7585E-03,-2.611201E-06
-464.6159E-03,-2.614530E-06
-459.7162E-03,-2.611825E-06
-454.5560E-03,-2.611921E-06
-449.6541E-03,-2.608831E-06
-444.7597E-03,-2.610062E-06
-439.6036E-03,-2.612114E-06
-434.7045E-03,-2.613767E-06
-429.7988E-03,-2.611313E-06
-424.6605E-03,-2.606447E-06
-419.7570E-03,-2.613260E-06
-414.6099E-03,-2.613423E-06
-409.7068E-03,-2.617730E-06
-404.8080E-03,-2.618388E-06
-399.6725E-03,-2.610716E-06
-394.7693E-03,-2.613877E-06
-389.6177E-03,-2.613224E-06
-384.7078E-03,-2.612208E-06
-379.8161E-03,-2.606877E-06
-374.6718E-03,-2.610611E-06
-369.7673E-03,-2.615131E-06
-364.6321E-03,-2.610522E-06
-359.7316E-03,-2.611479E-06
-354.8171E-03,-2.614239E-06
-349.6815E-03,-2.611991E-06
-344.7647E-03,-2.608779E-06
-339.8689E-03,-2.609560E-06
-334.7361E-03,-2.613061E-06
-329.8322E-03,-2.610131E-06
-324.6910E-03,-2.606867E-06
-319.7923E-03,-2.602217E-06
-314.8938E-03,-2.609181E-06
-309.7492E-03,-2.604086E-06
-304.8439E-03,-2.602723E-06
-299.6988E-03,-2.604700E-06
-294.7849E-03,-2.604321E-06
-289.9050E-03,-2.604768E-06
-284.7681E-03,-2.601241E-06
-279.8464E-03,-2.596375E-06
-274.7086E-03,-2.597164E-06
-269.8101E-03,-2.584739E-06
-264.9145E-03,-2.584958E-06
-259.7722E-03,-2.589892E-06
-254.8691E-03,-2.577987E-06
-249.9621E-03,-2.583489E-06
-244.8231E-03,-2.584870E-06
-239.9315E-03,-2.568975E-06
-234.7913E-03,-2.569755E-06
-229.8826E-03,-2.568131E-06
-224.9838E-03,-2.562444E-06
-219.8427E-03,-2.561002E-06
-214.9238E-03,-2.552777E-06
-209.7909E-03,-2.545400E-06
-204.9040E-03,-2.549580E-06
-199.9851E-03,-2.534439E-06
-194.8400E-03,-2.528415E-06
-189.9496E-03,-2.518878E-06
-184.8112E-03,-2.503986E-06
-179.9179E-03,-2.501874E-06
-175.0142E-03,-2.493546E-06
-169.8557E-03,-2.471193E-06
-164.9663E-03,-2.453239E-06
-159.8258E-03,-2.443188E-06
-154.9217E-03,-2.424826E-06
-150.0035E-03,-2.404669E-06
-144.8836E-03,-2.386923E-06
-139.9652E-03,-2.359690E-06
-135.0677E-03,-2.344685E-06
-129.9238E-03,-2.309265E-06
-125.0204E-03,-2.284019E-06
-119.8740E-03,-2.248426E-06
-114.9771E-03,-2.209600E-06
-110.1005E-03,-2.169615E-06
-104.9392E-03,-2.135082E-06
-100.0382E-03,-2.073547E-06
-94.91239E-03,-2.021282E-06
-89.98349E-03,-1.976455E-06
-85.09739E-03,-1.901453E-06
-79.96534E-03,-1.834673E-06
-75.04138E-03,-1.769578E-06
-69.89697E-03,-1.690858E-06
-65.00903E-03,-1.607157E-06
-60.10697E-03,-1.540191E-06
-54.96981E-03,-1.428844E-06
-50.06987E-03,-1.345407E-06
-45.17346E-03,-1.249933E-06
-40.03240E-03,-1.131337E-06
-35.14605E-03,-1.036868E-06
-29.97939E-03,-913.7183E-09
-25.07397E-03,-797.0067E-09
-20.17728E-03,-686.5711E-09
-15.02779E-03,-557.8598E-09
-10.12893E-03,-398.0571E-09
-4.986642E-03,-271.4338E-09
-132.4243E-06,-115.0666E-09
+4.783728E-03,+26.97905E-09
+9.913597E-03,+178.2563E-09
+14.79903E-03,+313.4862E-09
+19.95127E-03,+474.0440E-09
+24.84888E-03,+623.5953E-09
+29.72550E-03,+759.6811E-09
+34.89477E-03,+899.0373E-09
+39.80889E-03,+1.034799E-06
+44.93153E-03,+1.155024E-06
+49.83086E-03,+1.240064E-06
+54.74431E-03,+1.357359E-06
+59.88198E-03,+1.462616E-06
+64.78136E-03,+1.546367E-06
+69.68191E-03,+1.631509E-06
+74.81548E-03,+1.728223E-06
+79.72872E-03,+1.800437E-06
+84.83084E-03,+1.869996E-06
+89.72894E-03,+1.938740E-06
+94.65327E-03,+1.979856E-06
+99.81347E-03,+2.056385E-06
+104.7034E-03,+2.100814E-06
+109.8483E-03,+2.138310E-06
+114.7600E-03,+2.195930E-06
+119.6628E-03,+2.239097E-06
+124.7944E-03,+2.272281E-06
+129.6848E-03,+2.316194E-06
+134.8157E-03,+2.344655E-06
+139.7292E-03,+2.371091E-06
+144.6293E-03,+2.387118E-06
+149.7543E-03,+2.404371E-06
+154.6825E-03,+2.423566E-06
+159.5972E-03,+2.429452E-06
+164.7124E-03,+2.451800E-06
+169.6285E-03,+2.461129E-06
+174.7869E-03,+2.489675E-06
+179.6762E-03,+2.496374E-06
+184.5498E-03,+2.518136E-06
+189.6999E-03,+2.515025E-06
+194.6315E-03,+2.522499E-06
+199.7341E-03,+2.539618E-06
+204.6374E-03,+2.536341E-06
+209.5340E-03,+2.541412E-06
+214.6768E-03,+2.563724E-06
+219.5856E-03,+2.559221E-06
+224.7144E-03,+2.581602E-06
+229.6238E-03,+2.571036E-06
+234.5165E-03,+2.575402E-06
+239.6747E-03,+2.571057E-06
+244.5779E-03,+2.558455E-06
+249.7071E-03,+2.581586E-06
+254.6094E-03,+2.584418E-06
+259.5078E-03,+2.585083E-06
+264.6513E-03,+2.591952E-06
+269.5568E-03,+2.607120E-06
+274.4544E-03,+2.606251E-06
+279.5805E-03,+2.603751E-06
+284.4974E-03,+2.601642E-06
+289.6463E-03,+2.597902E-06
+294.5424E-03,+2.602727E-06
+299.4348E-03,+2.602277E-06
+304.5756E-03,+2.610472E-06
+309.4620E-03,+2.610777E-06
+314.6115E-03,+2.611463E-06
+319.5103E-03,+2.617212E-06
+324.4060E-03,+2.615065E-06
+329.5679E-03,+2.603110E-06
+334.4597E-03,+2.615257E-06
+339.5952E-03,+2.615255E-06
+344.4981E-03,+2.617632E-06
+349.3833E-03,+2.607448E-06
+354.5268E-03,+2.622161E-06
+359.4368E-03,+2.615722E-06
+364.3426E-03,+2.614956E-06
+369.4791E-03,+2.623488E-06
+374.3740E-03,+2.618541E-06
+379.5240E-03,+2.617154E-06
+384.4212E-03,+2.615639E-06
+389.3137E-03,+2.629208E-06
+394.4554E-03,+2.617290E-06
+399.3647E-03,+2.617549E-06
+404.4943E-03,+2.610961E-06
+409.3947E-03,+2.614496E-06
+414.3059E-03,+2.621093E-06
+419.4406E-03,+2.615790E-06
+424.3340E-03,+2.617539E-06
+429.4670E-03,+2.614852E-06
+434.3886E-03,+2.613785E-06
+439.2830E-03,+2.611856E-06
+444.4092E-03,+2.618959E-06
+449.3096E-03,+2.616055E-06
+454.2084E-03,+2.621488E-06
+459.3514E-03,+2.621612E-06
+464.2491E-03,+2.615574E-06
+469.3848E-03,+2.610258E-06
+474.2897E-03,+2.613418E-06
+479.1983E-03,+2.615818E-06
+484.3264E-03,+2.608779E-06
+489.2323E-03,+2.609248E-06
+494.3771E-03,+2.613438E-06
+499.3775E-03,+2.612928E-06

MicroMag 2900/3900 Data File ends
