MicroMag 2900/3900 Data File (Series 0016.002)
Direct moment vs. field; Hysteresis loop

INSTRUMENT
Configuration                   VSM
Temperature control             None
Hardware version                0004
Software version                06/08/2012
Units of measure                Hybrid SI
Temperature in                  Kelvin

SAMPLE
Mass                            N/A
Volume                          N/A
Demagnetizing factor            N/A

SETTINGS
Field range                    +1.000000E+00
Field (command)                 N/A
Moment range                   +5.000000E-06
Averaging time                 +200.0000E-03
Temperature (command)           N/A
Tmprtr difference correction    No
Orientation                     0.000000E+00
Vibration amplitude             1.0
Calibration factor             +3.570920E+00
Operating frequency            +83.00000E+00
Sweep mode                      Discrete
Pause after sweep increment    +300.0000E-03

MEASUREMENT
Description                    "DQ15-33B1"
Field (measured)                N/A
Temperature (measured)          N/A
Averages (completed)            1
Measured on                     10/29/2016  16:14
Elapsed time                   +206.9627E+00

PROCESSING
Background subtraction          No
Delta-m processing              N/A
Demagnetizing factor            No
Normalization                   No
Normalization factor            N/A
Offset (field)                  No
Offset (moment)                 No
Pole saturation                 No
Slope correction                No

VIEWPORT
Left                           -500.0000E-03
Right                          +500.0000E-03
Bottom                         -5.000000E-06
Top                            +5.000000E-06
Show X-axis?                    Yes
Show Y-axis?                    Yes

CHARACTERIZATION
Initial slope                   N/A
Saturation                     +2.638314E-06
Remanence                      +129.6430E-09
Coercivity                     +4.202995E-03
S*                             +160.1601E-06

SCRIPT
Averages (target)               1
Averaging time                 +200.0000E-03
Demagnetize?                    No
Maximum field                  +500.0000E-03
Field increment                +5.000000E-03
Hysteresis loop?                Yes
Initial magnetization?          No
Pause                          +1.000000E+00
Saturate before measuring?      No
Number of segments              2
Number of data                  402

Segment   Averaging      Initial        Field         Final                    Final 
 Number      Time         Field       Increment       Field         Pause      Index 
             (s)           (T)           (T)           (T)           (s)     
0000001,+200.0000E-03,+500.0000E-03,+5.000000E-03,-500.0000E-03,+1.000000E+00,0000201
0000002,+200.0000E-03,-500.0000E-03,+5.000000E-03,+500.0000E-03,+1.000000E+00,0000402

                           
    Field         Moment   
     (T)          (Am²)    
+499.3529E-03,+2.644976E-06
+494.5625E-03,+2.637483E-06
+489.4690E-03,+2.641086E-06
+484.5521E-03,+2.645257E-06
+479.4101E-03,+2.644756E-06
+474.4912E-03,+2.641834E-06
+469.5870E-03,+2.639528E-06
+464.4477E-03,+2.641540E-06
+459.5404E-03,+2.640426E-06
+454.4000E-03,+2.643835E-06
+449.4869E-03,+2.643156E-06
+444.6034E-03,+2.646545E-06
+439.4618E-03,+2.644440E-06
+434.5462E-03,+2.647898E-06
+429.6467E-03,+2.651260E-06
+424.4985E-03,+2.646808E-06
+419.6030E-03,+2.648166E-06
+414.4587E-03,+2.648470E-06
+409.5566E-03,+2.646548E-06
+404.6544E-03,+2.648317E-06
+399.5102E-03,+2.649669E-06
+394.6072E-03,+2.647235E-06
+389.4528E-03,+2.647228E-06
+384.5643E-03,+2.645288E-06
+379.6707E-03,+2.643930E-06
+374.5185E-03,+2.645103E-06
+369.6185E-03,+2.647730E-06
+364.4838E-03,+2.646670E-06
+359.5718E-03,+2.643421E-06
+354.6827E-03,+2.646813E-06
+349.5347E-03,+2.645239E-06
+344.6309E-03,+2.642810E-06
+339.7252E-03,+2.640250E-06
+334.5923E-03,+2.646247E-06
+329.7063E-03,+2.642062E-06
+324.5527E-03,+2.638961E-06
+319.6450E-03,+2.642621E-06
+314.7525E-03,+2.639847E-06
+309.5985E-03,+2.637955E-06
+304.6984E-03,+2.634702E-06
+299.5788E-03,+2.635786E-06
+294.6652E-03,+2.635113E-06
+289.7694E-03,+2.635323E-06
+284.6345E-03,+2.626351E-06
+279.7099E-03,+2.628705E-06
+274.5766E-03,+2.627893E-06
+269.6748E-03,+2.627758E-06
+264.7681E-03,+2.624550E-06
+259.6367E-03,+2.619230E-06
+254.7392E-03,+2.616906E-06
+249.8272E-03,+2.612773E-06
+244.7041E-03,+2.606827E-06
+239.7981E-03,+2.611262E-06
+234.6432E-03,+2.607776E-06
+229.7436E-03,+2.596964E-06
+224.8572E-03,+2.597340E-06
+219.7063E-03,+2.591079E-06
+214.8043E-03,+2.591569E-06
+209.6699E-03,+2.585020E-06
+204.7589E-03,+2.570819E-06
+199.8572E-03,+2.566364E-06
+194.7270E-03,+2.558882E-06
+189.8172E-03,+2.550936E-06
+184.6713E-03,+2.538496E-06
+179.7860E-03,+2.528111E-06
+174.8844E-03,+2.517629E-06
+169.7388E-03,+2.509249E-06
+164.8327E-03,+2.487523E-06
+159.6982E-03,+2.471535E-06
+154.7811E-03,+2.458821E-06
+149.8875E-03,+2.437189E-06
+144.7511E-03,+2.413832E-06
+139.8447E-03,+2.398284E-06
+134.9392E-03,+2.369094E-06
+129.8010E-03,+2.340730E-06
+124.9123E-03,+2.316248E-06
+119.7714E-03,+2.279483E-06
+114.8624E-03,+2.239881E-06
+109.9692E-03,+2.191532E-06
+104.8222E-03,+2.151137E-06
+99.92691E-03,+2.099297E-06
+94.78777E-03,+2.052113E-06
+89.87506E-03,+1.989574E-06
+84.97914E-03,+1.932760E-06
+79.84152E-03,+1.856709E-06
+74.92863E-03,+1.786520E-06
+69.79727E-03,+1.718863E-06
+64.89826E-03,+1.635676E-06
+59.99072E-03,+1.553240E-06
+54.85257E-03,+1.463234E-06
+49.94492E-03,+1.364708E-06
+45.05233E-03,+1.263685E-06
+39.91259E-03,+1.149944E-06
+35.00777E-03,+1.049718E-06
+29.85549E-03,+927.2318E-09
+24.96412E-03,+806.2510E-09
+20.06168E-03,+683.0073E-09
+14.91605E-03,+548.6482E-09
+10.02945E-03,+422.8831E-09
+4.898236E-03,+276.2125E-09
-12.91047E-06,+134.7057E-09
-4.887020E-03,-22.08876E-09
-10.01918E-03,-175.4380E-09
-14.91757E-03,-325.4308E-09
-20.07037E-03,-487.0400E-09
-24.96269E-03,-622.1009E-09
-29.86926E-03,-765.4899E-09
-35.02820E-03,-906.9943E-09
-39.91137E-03,-1.032988E-06
-45.04565E-03,-1.152943E-06
-49.94803E-03,-1.263984E-06
-54.85200E-03,-1.364667E-06
-59.99216E-03,-1.463703E-06
-64.89760E-03,-1.574526E-06
-69.78887E-03,-1.664073E-06
-74.92408E-03,-1.743305E-06
-79.83985E-03,-1.822716E-06
-84.97369E-03,-1.896361E-06
-89.85971E-03,-1.960144E-06
-94.77796E-03,-2.022659E-06
-99.91273E-03,-2.062411E-06
-104.8243E-03,-2.131181E-06
-109.9690E-03,-2.180407E-06
-114.8601E-03,-2.219167E-06
-119.7562E-03,-2.261550E-06
-124.8963E-03,-2.294317E-06
-129.8054E-03,-2.329604E-06
-134.9339E-03,-2.344755E-06
-139.8342E-03,-2.367329E-06
-144.7388E-03,-2.400903E-06
-149.8751E-03,-2.429257E-06
-154.7726E-03,-2.454284E-06
-159.6934E-03,-2.461805E-06
-164.8273E-03,-2.482644E-06
-169.7223E-03,-2.494955E-06
-174.8789E-03,-2.505696E-06
-179.7761E-03,-2.530411E-06
-184.6691E-03,-2.530319E-06
-189.8138E-03,-2.535335E-06
-194.7038E-03,-2.554475E-06
-199.8449E-03,-2.559412E-06
-204.7533E-03,-2.560892E-06
-209.6494E-03,-2.565079E-06
-214.7874E-03,-2.577618E-06
-219.6874E-03,-2.589735E-06
-224.8380E-03,-2.586796E-06
-229.7319E-03,-2.596775E-06
-234.6351E-03,-2.588492E-06
-239.7800E-03,-2.603611E-06
-244.6771E-03,-2.602579E-06
-249.8076E-03,-2.606674E-06
-254.7181E-03,-2.618539E-06
-259.6088E-03,-2.612788E-06
-264.7617E-03,-2.619581E-06
-269.6452E-03,-2.620735E-06
-274.5433E-03,-2.627166E-06
-279.6849E-03,-2.619444E-06
-284.6013E-03,-2.631058E-06
-289.7373E-03,-2.631592E-06
-294.6261E-03,-2.624101E-06
-299.5342E-03,-2.634176E-06
-304.6758E-03,-2.632560E-06
-309.5813E-03,-2.634276E-06
-314.7222E-03,-2.641374E-06
-319.6257E-03,-2.639185E-06
-324.5186E-03,-2.635242E-06
-329.6505E-03,-2.637380E-06
-334.5677E-03,-2.640254E-06
-339.6904E-03,-2.641415E-06
-344.5834E-03,-2.640064E-06
-349.4982E-03,-2.641431E-06
-354.6326E-03,-2.646475E-06
-359.5353E-03,-2.642399E-06
-364.4496E-03,-2.636255E-06
-369.5796E-03,-2.640105E-06
-374.4752E-03,-2.651986E-06
-379.6327E-03,-2.639994E-06
-384.5249E-03,-2.641798E-06
-389.4174E-03,-2.645198E-06
-394.5754E-03,-2.637449E-06
-399.4647E-03,-2.638505E-06
-404.5973E-03,-2.647038E-06
-409.5159E-03,-2.648534E-06
-414.3988E-03,-2.643100E-06
-419.5392E-03,-2.639709E-06
-424.4453E-03,-2.643454E-06
-429.5761E-03,-2.642652E-06
-434.4784E-03,-2.641960E-06
-439.3864E-03,-2.642760E-06
-444.5283E-03,-2.642559E-06
-449.4081E-03,-2.642660E-06
-454.3110E-03,-2.644122E-06
-459.4569E-03,-2.644985E-06
-464.3724E-03,-2.641601E-06
-469.5001E-03,-2.643301E-06
-474.4129E-03,-2.638416E-06
-479.3078E-03,-2.633896E-06
-484.4297E-03,-2.641836E-06
-489.3564E-03,-2.638613E-06
-494.4871E-03,-2.641310E-06
-499.4505E-03,-2.633716E-06

-499.4523E-03,-2.631979E-06
-494.6867E-03,-2.636008E-06
-489.5828E-03,-2.636242E-06
-484.6562E-03,-2.639210E-06
-479.5298E-03,-2.638483E-06
-474.6203E-03,-2.638206E-06
-469.7030E-03,-2.636579E-06
-464.5568E-03,-2.639324E-06
-459.6600E-03,-2.640756E-06
-454.5079E-03,-2.640041E-06
-449.5966E-03,-2.640427E-06
-444.7017E-03,-2.639180E-06
-439.5656E-03,-2.644077E-06
-434.6504E-03,-2.640570E-06
-429.7512E-03,-2.645298E-06
-424.6149E-03,-2.639432E-06
-419.7067E-03,-2.644975E-06
-414.5680E-03,-2.644508E-06
-409.6721E-03,-2.641160E-06
-404.7546E-03,-2.644069E-06
-399.6210E-03,-2.644232E-06
-394.7492E-03,-2.639761E-06
-389.5810E-03,-2.642437E-06
-384.6751E-03,-2.641199E-06
-379.7824E-03,-2.641991E-06
-374.6277E-03,-2.645294E-06
-369.7287E-03,-2.644553E-06
-364.5934E-03,-2.642284E-06
-359.6799E-03,-2.643372E-06
-354.7795E-03,-2.641041E-06
-349.6337E-03,-2.640993E-06
-344.7253E-03,-2.639069E-06
-339.8318E-03,-2.639813E-06
-334.7100E-03,-2.636929E-06
-329.7926E-03,-2.636597E-06
-324.6520E-03,-2.636671E-06
-319.7554E-03,-2.634506E-06
-314.8657E-03,-2.637138E-06
-309.7130E-03,-2.631112E-06
-304.8085E-03,-2.635770E-06
-299.6695E-03,-2.633560E-06
-294.7576E-03,-2.624757E-06
-289.8692E-03,-2.623515E-06
-284.7434E-03,-2.627654E-06
-279.8113E-03,-2.626126E-06
-274.6740E-03,-2.624555E-06
-269.7730E-03,-2.626346E-06
-264.8823E-03,-2.620917E-06
-259.7318E-03,-2.617779E-06
-254.8437E-03,-2.613811E-06
-249.9439E-03,-2.609636E-06
-244.7981E-03,-2.605483E-06
-239.9010E-03,-2.605324E-06
-234.7517E-03,-2.595907E-06
-229.8502E-03,-2.596350E-06
-224.9579E-03,-2.592506E-06
-219.8205E-03,-2.588533E-06
-214.9050E-03,-2.578303E-06
-209.7590E-03,-2.577184E-06
-204.8751E-03,-2.569237E-06
-199.9539E-03,-2.564872E-06
-194.8165E-03,-2.550097E-06
-189.9261E-03,-2.545384E-06
-184.7850E-03,-2.535441E-06
-179.8889E-03,-2.529828E-06
-174.9860E-03,-2.512828E-06
-169.8294E-03,-2.494685E-06
-164.9430E-03,-2.492149E-06
-159.8078E-03,-2.468220E-06
-154.8938E-03,-2.451982E-06
-149.9954E-03,-2.438097E-06
-144.8539E-03,-2.410640E-06
-139.9329E-03,-2.386520E-06
-135.0414E-03,-2.359904E-06
-129.9109E-03,-2.333929E-06
-125.0089E-03,-2.300951E-06
-119.8616E-03,-2.266176E-06
-114.9740E-03,-2.231976E-06
-110.0739E-03,-2.190057E-06
-104.9360E-03,-2.139195E-06
-100.0316E-03,-2.098220E-06
-94.89211E-03,-2.041049E-06
-89.97404E-03,-1.991312E-06
-85.09050E-03,-1.921602E-06
-79.94329E-03,-1.861112E-06
-75.03086E-03,-1.781944E-06
-69.90045E-03,-1.703292E-06
-65.00310E-03,-1.622912E-06
-60.09994E-03,-1.546460E-06
-54.95411E-03,-1.455555E-06
-50.04805E-03,-1.359226E-06
-45.14590E-03,-1.257696E-06
-40.02248E-03,-1.160054E-06
-35.12742E-03,-1.039398E-06
-29.96749E-03,-914.4635E-09
-25.06969E-03,-805.2379E-09
-20.17809E-03,-674.5497E-09
-15.02648E-03,-541.5351E-09
-10.12212E-03,-415.1970E-09
-4.987836E-03,-266.5287E-09
-120.0203E-06,-127.7530E-09
+4.794052E-03,+17.37861E-09
+9.926217E-03,+172.7825E-09
+14.81266E-03,+330.8004E-09
+19.96156E-03,+494.8612E-09
+24.86120E-03,+627.7068E-09
+29.74660E-03,+769.9611E-09
+34.91073E-03,+911.8218E-09
+39.81276E-03,+1.028160E-06
+44.93617E-03,+1.154411E-06
+49.84194E-03,+1.264957E-06
+54.74313E-03,+1.386843E-06
+59.88277E-03,+1.479904E-06
+64.79732E-03,+1.563554E-06
+69.68509E-03,+1.659834E-06
+74.82221E-03,+1.752567E-06
+79.74049E-03,+1.825129E-06
+84.87789E-03,+1.898896E-06
+89.77606E-03,+1.961184E-06
+94.67917E-03,+2.028193E-06
+99.81381E-03,+2.078687E-06
+104.7129E-03,+2.140652E-06
+109.8622E-03,+2.201937E-06
+114.7605E-03,+2.215990E-06
+119.6555E-03,+2.267613E-06
+124.8009E-03,+2.299028E-06
+129.6902E-03,+2.327376E-06
+134.8387E-03,+2.367374E-06
+139.7338E-03,+2.377253E-06
+144.6294E-03,+2.410309E-06
+149.7741E-03,+2.430004E-06
+154.6748E-03,+2.450222E-06
+159.5803E-03,+2.473371E-06
+164.7233E-03,+2.490509E-06
+169.6132E-03,+2.501552E-06
+174.7638E-03,+2.519830E-06
+179.6682E-03,+2.534741E-06
+184.5605E-03,+2.543854E-06
+189.7115E-03,+2.545074E-06
+194.6079E-03,+2.553473E-06
+199.7366E-03,+2.570870E-06
+204.6448E-03,+2.569305E-06
+209.5407E-03,+2.583605E-06
+214.6808E-03,+2.584347E-06
+219.5797E-03,+2.589750E-06
+224.7293E-03,+2.595876E-06
+229.6254E-03,+2.608057E-06
+234.5238E-03,+2.604792E-06
+239.6711E-03,+2.599887E-06
+244.5765E-03,+2.611177E-06
+249.7290E-03,+2.611240E-06
+254.6121E-03,+2.615768E-06
+259.5084E-03,+2.617709E-06
+264.6407E-03,+2.623045E-06
+269.5533E-03,+2.619435E-06
+274.4562E-03,+2.631497E-06
+279.5881E-03,+2.625849E-06
+284.5081E-03,+2.622109E-06
+289.6348E-03,+2.638033E-06
+294.5276E-03,+2.637116E-06
+299.4328E-03,+2.633188E-06
+304.5727E-03,+2.638220E-06
+309.4733E-03,+2.641320E-06
+314.6093E-03,+2.643939E-06
+319.5095E-03,+2.641873E-06
+324.4072E-03,+2.638289E-06
+329.5671E-03,+2.641290E-06
+334.4527E-03,+2.643844E-06
+339.5873E-03,+2.644271E-06
+344.4892E-03,+2.649260E-06
+349.3932E-03,+2.646845E-06
+354.5296E-03,+2.646580E-06
+359.4371E-03,+2.641776E-06
+364.3396E-03,+2.638282E-06
+369.4677E-03,+2.653996E-06
+374.3728E-03,+2.643177E-06
+379.5155E-03,+2.646213E-06
+384.4146E-03,+2.644089E-06
+389.2989E-03,+2.642981E-06
+394.4511E-03,+2.644568E-06
+399.3567E-03,+2.647050E-06
+404.4896E-03,+2.649484E-06
+409.3949E-03,+2.653052E-06
+414.3015E-03,+2.648234E-06
+419.4329E-03,+2.648144E-06
+424.3332E-03,+2.646772E-06
+429.4818E-03,+2.643920E-06
+434.3676E-03,+2.646453E-06
+439.2778E-03,+2.644997E-06
+444.4252E-03,+2.646773E-06
+449.3058E-03,+2.648049E-06
+454.2006E-03,+2.648301E-06
+459.3568E-03,+2.645560E-06
+464.2470E-03,+2.647673E-06
+469.3711E-03,+2.648325E-06
+474.2761E-03,+2.641557E-06
+479.1867E-03,+2.641895E-06
+484.3172E-03,+2.645840E-06
+489.2313E-03,+2.644341E-06
+494.3589E-03,+2.644586E-06
+499.3447E-03,+2.643656E-06

MicroMag 2900/3900 Data File ends
