MicroMag 2900/3900 Data File (Series 0016.002)
Direct moment vs. field; Hysteresis loop

INSTRUMENT
Configuration                   VSM
Temperature control             None
Hardware version                0004
Software version                06/08/2012
Units of measure                Hybrid SI
Temperature in                  Kelvin

SAMPLE
Mass                            N/A
Volume                          N/A
Demagnetizing factor            N/A

SETTINGS
Field range                    +1.000000E+00
Field (command)                 N/A
Moment range                   +5.000000E-06
Averaging time                 +100.0000E-03
Temperature (command)           N/A
Tmprtr difference correction    No
Orientation                     0.000000E+00
Vibration amplitude             1.0
Calibration factor             +3.570920E+00
Operating frequency            +83.00000E+00
Sweep mode                      Discrete
Pause after sweep increment    +300.0000E-03

MEASUREMENT
Description                    "DQ15-33B1"
Field (measured)                N/A
Temperature (measured)          N/A
Averages (completed)            1
Measured on                     10/29/2016  13:11
Elapsed time                   +166.8435E+00

PROCESSING
Background subtraction          No
Delta-m processing              N/A
Demagnetizing factor            No
Normalization                   No
Normalization factor            N/A
Offset (field)                  No
Offset (moment)                 No
Pole saturation                 No
Slope correction                No

VIEWPORT
Left                           -500.0000E-03
Right                          +500.0000E-03
Bottom                         -5.000000E-06
Top                            +5.000000E-06
Show X-axis?                    Yes
Show Y-axis?                    Yes

CHARACTERIZATION
Initial slope                   N/A
Saturation                     +2.602291E-06
Remanence                      +126.3217E-09
Coercivity                     +4.363871E-03
S*                             +14.86134E-03

SCRIPT
Averages (target)               1
Averaging time                 +100.0000E-03
Demagnetize?                    No
Maximum field                  +500.0000E-03
Field increment                +5.000000E-03
Hysteresis loop?                Yes
Initial magnetization?          No
Pause                          +1.000000E+00
Saturate before measuring?      No
Number of segments              2
Number of data                  402

Segment   Averaging      Initial        Field         Final                    Final 
 Number      Time         Field       Increment       Field         Pause      Index 
             (s)           (T)           (T)           (T)           (s)     
0000001,+100.0000E-03,+500.0000E-03,+5.000000E-03,-500.0000E-03,+1.000000E+00,0000201
0000002,+100.0000E-03,-500.0000E-03,+5.000000E-03,+500.0000E-03,+1.000000E+00,0000402

                           
    Field         Moment   
     (T)          (Am²)    
+499.3774E-03,+2.600358E-06
+494.6118E-03,+2.599317E-06
+489.5181E-03,+2.604424E-06
+484.5993E-03,+2.611968E-06
+479.4719E-03,+2.605678E-06
+474.5598E-03,+2.608642E-06
+469.6448E-03,+2.610770E-06
+464.5049E-03,+2.606263E-06
+459.6041E-03,+2.611151E-06
+454.4557E-03,+2.608955E-06
+449.5191E-03,+2.612027E-06
+444.6622E-03,+2.607402E-06
+439.5095E-03,+2.608641E-06
+434.5961E-03,+2.607693E-06
+429.7152E-03,+2.613011E-06
+424.5434E-03,+2.606078E-06
+419.6493E-03,+2.605284E-06
+414.5219E-03,+2.608041E-06
+409.6056E-03,+2.610361E-06
+404.6915E-03,+2.614157E-06
+399.5640E-03,+2.609363E-06
+394.6536E-03,+2.611404E-06
+389.5058E-03,+2.606751E-06
+384.6099E-03,+2.614796E-06
+379.7173E-03,+2.610522E-06
+374.5562E-03,+2.616945E-06
+369.6690E-03,+2.611358E-06
+364.5333E-03,+2.605741E-06
+359.6178E-03,+2.614467E-06
+354.7105E-03,+2.609139E-06
+349.5705E-03,+2.612711E-06
+344.6622E-03,+2.605688E-06
+339.7696E-03,+2.604998E-06
+334.6282E-03,+2.604351E-06
+329.7392E-03,+2.603027E-06
+324.5848E-03,+2.604899E-06
+319.6856E-03,+2.603449E-06
+314.7964E-03,+2.607956E-06
+309.6432E-03,+2.600987E-06
+304.7534E-03,+2.599766E-06
+299.6120E-03,+2.605355E-06
+294.6975E-03,+2.597787E-06
+289.8124E-03,+2.596596E-06
+284.6654E-03,+2.595066E-06
+279.7451E-03,+2.595070E-06
+274.6092E-03,+2.594968E-06
+269.7099E-03,+2.590620E-06
+264.8030E-03,+2.589918E-06
+259.6689E-03,+2.579632E-06
+254.7526E-03,+2.582050E-06
+249.8598E-03,+2.581280E-06
+244.7252E-03,+2.572991E-06
+239.8213E-03,+2.573675E-06
+234.6835E-03,+2.568210E-06
+229.7823E-03,+2.567668E-06
+224.8804E-03,+2.550814E-06
+219.7355E-03,+2.551757E-06
+214.8212E-03,+2.545900E-06
+209.6877E-03,+2.538299E-06
+204.7822E-03,+2.534748E-06
+199.8702E-03,+2.533960E-06
+194.7654E-03,+2.520262E-06
+189.8540E-03,+2.514353E-06
+184.6914E-03,+2.504763E-06
+179.8143E-03,+2.493960E-06
+174.9075E-03,+2.486498E-06
+169.7507E-03,+2.463976E-06
+164.8612E-03,+2.460558E-06
+159.7233E-03,+2.440517E-06
+154.8039E-03,+2.420586E-06
+149.9176E-03,+2.402440E-06
+144.7622E-03,+2.379855E-06
+139.8782E-03,+2.359840E-06
+134.9692E-03,+2.340928E-06
+129.8389E-03,+2.303966E-06
+124.9278E-03,+2.288723E-06
+119.7536E-03,+2.239138E-06
+114.8931E-03,+2.197974E-06
+109.9864E-03,+2.160797E-06
+104.8437E-03,+2.125786E-06
+99.94219E-03,+2.068392E-06
+94.74699E-03,+2.014329E-06
+89.90492E-03,+1.973850E-06
+85.02872E-03,+1.895885E-06
+79.80393E-03,+1.841838E-06
+74.94941E-03,+1.769357E-06
+69.81816E-03,+1.690828E-06
+64.90402E-03,+1.628211E-06
+60.00477E-03,+1.524793E-06
+54.86333E-03,+1.435245E-06
+49.96328E-03,+1.348041E-06
+45.06775E-03,+1.251110E-06
+39.92029E-03,+1.141532E-06
+35.03654E-03,+1.037307E-06
+29.86880E-03,+916.8103E-09
+24.97792E-03,+796.6244E-09
+20.08303E-03,+689.8205E-09
+14.92181E-03,+536.6538E-09
+10.03848E-03,+409.9686E-09
+4.903354E-03,+267.6303E-09
+2.343726E-06,+137.0485E-09
-4.861378E-03,-21.62317E-09
-10.01030E-03,-165.8218E-09
-14.90273E-03,-322.8985E-09
-20.04659E-03,-477.5119E-09
-24.94976E-03,-613.6960E-09
-29.83922E-03,-729.8374E-09
-35.00955E-03,-899.8667E-09
-39.90342E-03,-1.019443E-06
-45.04718E-03,-1.151333E-06
-49.94323E-03,-1.256427E-06
-54.85321E-03,-1.353891E-06
-59.91734E-03,-1.476494E-06
-64.88600E-03,-1.555694E-06
-69.77987E-03,-1.631755E-06
-74.90923E-03,-1.725182E-06
-79.81975E-03,-1.788915E-06
-84.97019E-03,-1.873774E-06
-89.84929E-03,-1.930238E-06
-94.77248E-03,-1.997569E-06
-99.90940E-03,-2.046740E-06
-104.8146E-03,-2.098897E-06
-109.9590E-03,-2.143832E-06
-114.8581E-03,-2.183794E-06
-119.7419E-03,-2.236720E-06
-124.8968E-03,-2.266175E-06
-129.8020E-03,-2.294001E-06
-134.9194E-03,-2.324884E-06
-139.8247E-03,-2.362238E-06
-144.7283E-03,-2.378520E-06
-149.8756E-03,-2.388382E-06
-154.7721E-03,-2.412307E-06
-159.6911E-03,-2.448225E-06
-164.8218E-03,-2.443997E-06
-169.7177E-03,-2.472928E-06
-174.8601E-03,-2.484546E-06
-179.7800E-03,-2.487468E-06
-184.6742E-03,-2.489263E-06
-189.8197E-03,-2.510532E-06
-194.7000E-03,-2.513459E-06
-199.8349E-03,-2.525583E-06
-204.7507E-03,-2.536426E-06
-209.6488E-03,-2.549046E-06
-214.7894E-03,-2.547982E-06
-219.6916E-03,-2.531708E-06
-224.8323E-03,-2.565838E-06
-229.7259E-03,-2.573710E-06
-234.6405E-03,-2.573926E-06
-239.7957E-03,-2.556655E-06
-244.6737E-03,-2.566876E-06
-249.8044E-03,-2.564116E-06
-254.7202E-03,-2.586997E-06
-259.6070E-03,-2.581936E-06
-264.7455E-03,-2.581760E-06
-269.6599E-03,-2.594315E-06
-274.5394E-03,-2.593687E-06
-279.6870E-03,-2.582452E-06
-284.6126E-03,-2.598225E-06
-289.7416E-03,-2.597306E-06
-294.6542E-03,-2.592896E-06
-299.5462E-03,-2.592578E-06
-304.6746E-03,-2.597481E-06
-309.5789E-03,-2.603026E-06
-314.7271E-03,-2.602167E-06
-319.6276E-03,-2.595031E-06
-324.5148E-03,-2.606292E-06
-329.6576E-03,-2.610554E-06
-334.5734E-03,-2.605316E-06
-339.6911E-03,-2.597042E-06
-344.5848E-03,-2.601425E-06
-349.5066E-03,-2.605212E-06
-354.6346E-03,-2.614806E-06
-359.5425E-03,-2.605821E-06
-364.4356E-03,-2.610822E-06
-369.5793E-03,-2.608196E-06
-374.4788E-03,-2.608223E-06
-379.6276E-03,-2.613053E-06
-384.5398E-03,-2.605630E-06
-389.4281E-03,-2.602793E-06
-394.5790E-03,-2.606750E-06
-399.4947E-03,-2.604433E-06
-404.6068E-03,-2.608039E-06
-409.5174E-03,-2.604732E-06
-414.4183E-03,-2.607084E-06
-419.5423E-03,-2.598665E-06
-424.4383E-03,-2.612975E-06
-429.6410E-03,-2.613349E-06
-434.4822E-03,-2.607586E-06
-439.3863E-03,-2.609848E-06
-444.5401E-03,-2.599944E-06
-449.4295E-03,-2.609804E-06
-454.3296E-03,-2.607537E-06
-459.4626E-03,-2.604342E-06
-464.3654E-03,-2.607998E-06
-469.5036E-03,-2.602275E-06
-474.4159E-03,-2.606449E-06
-479.3135E-03,-2.604350E-06
-484.4295E-03,-2.603105E-06
-489.3607E-03,-2.606957E-06
-494.4808E-03,-2.608929E-06
-499.4926E-03,-2.596420E-06

-499.4878E-03,-2.602329E-06
-494.7202E-03,-2.602949E-06
-489.6451E-03,-2.606291E-06
-484.7177E-03,-2.600774E-06
-479.6000E-03,-2.600932E-06
-474.6737E-03,-2.606450E-06
-469.7981E-03,-2.607733E-06
-464.6206E-03,-2.606584E-06
-459.7161E-03,-2.606277E-06
-454.5609E-03,-2.607446E-06
-449.6515E-03,-2.609873E-06
-444.7666E-03,-2.611529E-06
-439.6015E-03,-2.603956E-06
-434.7068E-03,-2.608308E-06
-429.8144E-03,-2.607651E-06
-424.6514E-03,-2.607878E-06
-419.7569E-03,-2.603850E-06
-414.6149E-03,-2.608298E-06
-409.7180E-03,-2.612381E-06
-404.7994E-03,-2.604883E-06
-399.6749E-03,-2.611898E-06
-394.7736E-03,-2.611767E-06
-389.6534E-03,-2.605888E-06
-384.7182E-03,-2.612299E-06
-379.8182E-03,-2.606270E-06
-374.6677E-03,-2.610006E-06
-369.7737E-03,-2.608660E-06
-364.6332E-03,-2.604153E-06
-359.7271E-03,-2.609049E-06
-354.8124E-03,-2.604236E-06
-349.6866E-03,-2.604504E-06
-344.8048E-03,-2.600620E-06
-339.8763E-03,-2.602872E-06
-334.7544E-03,-2.600846E-06
-329.8372E-03,-2.603514E-06
-324.6842E-03,-2.605892E-06
-319.7869E-03,-2.609993E-06
-314.8988E-03,-2.601998E-06
-309.7530E-03,-2.599375E-06
-304.8407E-03,-2.598276E-06
-299.7054E-03,-2.596317E-06
-294.7817E-03,-2.596852E-06
-289.9040E-03,-2.593461E-06
-284.7724E-03,-2.588840E-06
-279.8484E-03,-2.591919E-06
-274.7018E-03,-2.583265E-06
-269.8176E-03,-2.582699E-06
-264.9113E-03,-2.587814E-06
-259.7625E-03,-2.586048E-06
-254.8784E-03,-2.580487E-06
-249.9810E-03,-2.580304E-06
-244.8383E-03,-2.572350E-06
-239.9273E-03,-2.570109E-06
-234.7919E-03,-2.566369E-06
-229.8839E-03,-2.564243E-06
-224.9694E-03,-2.556707E-06
-219.8297E-03,-2.552141E-06
-214.9114E-03,-2.548516E-06
-209.7943E-03,-2.546112E-06
-204.9043E-03,-2.537216E-06
-199.9791E-03,-2.526085E-06
-194.8510E-03,-2.524072E-06
-189.9593E-03,-2.521370E-06
-184.8010E-03,-2.507891E-06
-179.9214E-03,-2.489544E-06
-175.0286E-03,-2.483603E-06
-169.8617E-03,-2.465353E-06
-164.9528E-03,-2.451557E-06
-159.8292E-03,-2.443948E-06
-154.9097E-03,-2.425026E-06
-150.0135E-03,-2.402904E-06
-144.8694E-03,-2.380019E-06
-139.9559E-03,-2.362290E-06
-135.0479E-03,-2.331985E-06
-129.9286E-03,-2.305093E-06
-125.0164E-03,-2.275124E-06
-119.8778E-03,-2.238177E-06
-114.9740E-03,-2.194735E-06
-110.0972E-03,-2.168005E-06
-104.9045E-03,-2.103086E-06
-100.0458E-03,-2.065318E-06
-94.90409E-03,-2.014645E-06
-89.99463E-03,-1.960221E-06
-85.10655E-03,-1.905745E-06
-79.95942E-03,-1.834889E-06
-75.04260E-03,-1.760034E-06
-69.91788E-03,-1.684680E-06
-65.01913E-03,-1.601596E-06
-60.16559E-03,-1.517410E-06
-54.96582E-03,-1.436678E-06
-50.03779E-03,-1.341958E-06
-45.16748E-03,-1.244477E-06
-40.02137E-03,-1.126429E-06
-35.14591E-03,-1.026179E-06
-29.98848E-03,-909.3956E-09
-25.07070E-03,-791.7947E-09
-20.18500E-03,-677.5574E-09
-15.01477E-03,-533.9823E-09
-10.14683E-03,-399.9384E-09
-4.998246E-03,-262.3083E-09
-125.7530E-06,-118.8830E-09
+4.803655E-03,+7.010065E-09
+9.880883E-03,+195.9554E-09
+14.79308E-03,+330.3437E-09
+19.97130E-03,+480.1461E-09
+24.84556E-03,+617.7914E-09
+29.74061E-03,+740.1098E-09
+34.89328E-03,+883.4512E-09
+39.80450E-03,+1.020368E-06
+44.92806E-03,+1.141897E-06
+49.83177E-03,+1.259217E-06
+54.75015E-03,+1.360204E-06
+59.87713E-03,+1.459294E-06
+64.77796E-03,+1.550575E-06
+69.68751E-03,+1.634269E-06
+74.80572E-03,+1.721716E-06
+79.73474E-03,+1.793691E-06
+84.87035E-03,+1.872994E-06
+89.73466E-03,+1.935322E-06
+94.65282E-03,+2.007797E-06
+99.81232E-03,+2.050176E-06
+104.7057E-03,+2.099658E-06
+109.8545E-03,+2.170915E-06
+114.7472E-03,+2.194907E-06
+119.6487E-03,+2.234221E-06
+124.7942E-03,+2.281272E-06
+129.6939E-03,+2.301580E-06
+134.8281E-03,+2.350894E-06
+139.7255E-03,+2.361462E-06
+144.6296E-03,+2.380284E-06
+149.7591E-03,+2.407925E-06
+154.6652E-03,+2.411862E-06
+159.5860E-03,+2.421004E-06
+164.7162E-03,+2.426066E-06
+169.6122E-03,+2.467932E-06
+174.7630E-03,+2.491966E-06
+179.6734E-03,+2.505486E-06
+184.5486E-03,+2.507807E-06
+189.7019E-03,+2.519273E-06
+194.6198E-03,+2.521885E-06
+199.7453E-03,+2.541978E-06
+204.6343E-03,+2.534800E-06
+209.5558E-03,+2.545617E-06
+214.6819E-03,+2.537289E-06
+219.5898E-03,+2.561060E-06
+224.7344E-03,+2.553246E-06
+229.6330E-03,+2.564000E-06
+234.5190E-03,+2.573758E-06
+239.6705E-03,+2.585069E-06
+244.5510E-03,+2.573694E-06
+249.7126E-03,+2.588855E-06
+254.6059E-03,+2.587988E-06
+259.5103E-03,+2.589408E-06
+264.6489E-03,+2.578868E-06
+269.5573E-03,+2.587100E-06
+274.4487E-03,+2.585301E-06
+279.5891E-03,+2.582944E-06
+284.5094E-03,+2.594815E-06
+289.6968E-03,+2.595465E-06
+294.5296E-03,+2.596439E-06
+299.4340E-03,+2.601898E-06
+304.5886E-03,+2.594744E-06
+309.4659E-03,+2.594508E-06
+314.6026E-03,+2.605722E-06
+319.5128E-03,+2.606434E-06
+324.4120E-03,+2.597404E-06
+329.5618E-03,+2.608627E-06
+334.4518E-03,+2.601334E-06
+339.5937E-03,+2.607839E-06
+344.5093E-03,+2.607692E-06
+349.3857E-03,+2.605111E-06
+354.5401E-03,+2.599654E-06
+359.4344E-03,+2.621535E-06
+364.3390E-03,+2.608198E-06
+369.4766E-03,+2.612009E-06
+374.3685E-03,+2.609402E-06
+379.5268E-03,+2.610190E-06
+384.4283E-03,+2.612594E-06
+389.3009E-03,+2.608409E-06
+394.4626E-03,+2.610595E-06
+399.3689E-03,+2.608242E-06
+404.5036E-03,+2.615353E-06
+409.3977E-03,+2.608563E-06
+414.3069E-03,+2.605824E-06
+419.4431E-03,+2.612526E-06
+424.3574E-03,+2.602048E-06
+429.4826E-03,+2.612942E-06
+434.3807E-03,+2.608657E-06
+439.2826E-03,+2.611026E-06
+444.4261E-03,+2.611707E-06
+449.3137E-03,+2.606060E-06
+454.2165E-03,+2.612394E-06
+459.3827E-03,+2.607219E-06
+464.2594E-03,+2.601793E-06
+469.3804E-03,+2.602449E-06
+474.2928E-03,+2.605778E-06
+479.1833E-03,+2.604428E-06
+484.3391E-03,+2.604467E-06
+489.2421E-03,+2.609335E-06
+494.3762E-03,+2.601282E-06
+499.3774E-03,+2.608193E-06

MicroMag 2900/3900 Data File ends
