MicroMag 2900/3900 Data File (Series 0016.002)
Direct moment vs. field; Hysteresis loop

INSTRUMENT
Configuration                   VSM
Temperature control             None
Hardware version                0004
Software version                06/08/2012
Units of measure                Hybrid SI
Temperature in                  Kelvin

SAMPLE
Mass                            N/A
Volume                          N/A
Demagnetizing factor            N/A

SETTINGS
Field range                    +1.000000E+00
Field (command)                 N/A
Moment range                   +5.000000E-06
Averaging time                 +100.0000E-03
Temperature (command)           N/A
Tmprtr difference correction    No
Orientation                     0.000000E+00
Vibration amplitude             1.0
Calibration factor             +3.570920E+00
Operating frequency            +83.00000E+00
Sweep mode                      Discrete
Pause after sweep increment    +300.0000E-03

MEASUREMENT
Description                    "DQ15-33B1"
Field (measured)                N/A
Temperature (measured)          N/A
Averages (completed)            1
Measured on                     10/29/2016  13:51
Elapsed time                   +166.8832E+00

PROCESSING
Background subtraction          No
Delta-m processing              N/A
Demagnetizing factor            No
Normalization                   No
Normalization factor            N/A
Offset (field)                  No
Offset (moment)                 No
Pole saturation                 No
Slope correction                No

VIEWPORT
Left                           -500.0000E-03
Right                          +500.0000E-03
Bottom                         -5.000000E-06
Top                            +5.000000E-06
Show X-axis?                    Yes
Show Y-axis?                    Yes

CHARACTERIZATION
Initial slope                   N/A
Saturation                     +2.609128E-06
Remanence                      +117.0249E-09
Coercivity                     +4.312142E-03
S*                             +744.4351E-06

SCRIPT
Averages (target)               1
Averaging time                 +100.0000E-03
Demagnetize?                    No
Maximum field                  +500.0000E-03
Field increment                +5.000000E-03
Hysteresis loop?                Yes
Initial magnetization?          No
Pause                          +1.000000E+00
Saturate before measuring?      No
Number of segments              2
Number of data                  402

Segment   Averaging      Initial        Field         Final                    Final 
 Number      Time         Field       Increment       Field         Pause      Index 
             (s)           (T)           (T)           (T)           (s)     
0000001,+100.0000E-03,+500.0000E-03,+5.000000E-03,-500.0000E-03,+1.000000E+00,0000201
0000002,+100.0000E-03,-500.0000E-03,+5.000000E-03,+500.0000E-03,+1.000000E+00,0000402

                           
    Field         Moment   
     (T)          (Am²)    
+499.3712E-03,+2.608826E-06
+494.6085E-03,+2.610666E-06
+489.5159E-03,+2.608052E-06
+484.6031E-03,+2.614462E-06
+479.4615E-03,+2.612553E-06
+474.5682E-03,+2.612489E-06
+469.6366E-03,+2.620338E-06
+464.4953E-03,+2.616247E-06
+459.5991E-03,+2.615153E-06
+454.4503E-03,+2.617343E-06
+449.5443E-03,+2.607914E-06
+444.6499E-03,+2.612965E-06
+439.4651E-03,+2.614126E-06
+434.6056E-03,+2.615941E-06
+429.6868E-03,+2.615490E-06
+424.5504E-03,+2.618367E-06
+419.6415E-03,+2.616970E-06
+414.5193E-03,+2.615244E-06
+409.5967E-03,+2.613276E-06
+404.7000E-03,+2.614322E-06
+399.5669E-03,+2.616466E-06
+394.6460E-03,+2.614536E-06
+389.5150E-03,+2.613986E-06
+384.6099E-03,+2.621446E-06
+379.7133E-03,+2.614762E-06
+374.5672E-03,+2.608416E-06
+369.6770E-03,+2.615768E-06
+364.5575E-03,+2.605388E-06
+359.6216E-03,+2.613049E-06
+354.7169E-03,+2.612951E-06
+349.5642E-03,+2.613513E-06
+344.6603E-03,+2.615168E-06
+339.7661E-03,+2.612435E-06
+334.6261E-03,+2.612268E-06
+329.7238E-03,+2.607042E-06
+324.5924E-03,+2.608016E-06
+319.6864E-03,+2.609890E-06
+314.7982E-03,+2.608816E-06
+309.6314E-03,+2.608932E-06
+304.7633E-03,+2.606341E-06
+299.6068E-03,+2.609110E-06
+294.6933E-03,+2.604246E-06
+289.8048E-03,+2.602570E-06
+284.6793E-03,+2.600686E-06
+279.7426E-03,+2.599500E-06
+274.6057E-03,+2.590280E-06
+269.7138E-03,+2.596512E-06
+264.8137E-03,+2.592151E-06
+259.6614E-03,+2.591223E-06
+254.7723E-03,+2.588873E-06
+249.8680E-03,+2.587528E-06
+244.7250E-03,+2.576288E-06
+239.8169E-03,+2.579861E-06
+234.6595E-03,+2.568505E-06
+229.7786E-03,+2.566471E-06
+224.8631E-03,+2.567848E-06
+219.7345E-03,+2.560056E-06
+214.8418E-03,+2.543671E-06
+209.6884E-03,+2.548738E-06
+204.7873E-03,+2.541558E-06
+199.8783E-03,+2.538785E-06
+194.7409E-03,+2.530924E-06
+189.8463E-03,+2.514080E-06
+184.7064E-03,+2.509104E-06
+179.8250E-03,+2.495209E-06
+174.8935E-03,+2.491283E-06
+169.7465E-03,+2.485021E-06
+164.8629E-03,+2.475127E-06
+159.7134E-03,+2.449431E-06
+154.8007E-03,+2.436961E-06
+149.9001E-03,+2.412211E-06
+144.7716E-03,+2.387419E-06
+139.8918E-03,+2.369086E-06
+134.9621E-03,+2.349842E-06
+129.8335E-03,+2.320659E-06
+124.9313E-03,+2.282914E-06
+119.7797E-03,+2.247436E-06
+114.8820E-03,+2.212049E-06
+109.9821E-03,+2.177305E-06
+104.8591E-03,+2.123092E-06
+99.94695E-03,+2.075785E-06
+94.80655E-03,+2.010979E-06
+89.88570E-03,+1.963994E-06
+84.99347E-03,+1.909815E-06
+79.85704E-03,+1.841774E-06
+74.95263E-03,+1.765490E-06
+69.83732E-03,+1.683664E-06
+64.90262E-03,+1.617458E-06
+60.01217E-03,+1.522459E-06
+54.87533E-03,+1.441063E-06
+49.96394E-03,+1.343461E-06
+45.07218E-03,+1.263474E-06
+39.92132E-03,+1.131638E-06
+35.02743E-03,+1.035513E-06
+29.86111E-03,+909.2701E-09
+24.97067E-03,+802.5178E-09
+20.07537E-03,+675.1487E-09
+14.93491E-03,+544.9843E-09
+10.04978E-03,+408.3073E-09
+4.914971E-03,+262.9662E-09
+4.344239E-06,+126.7452E-09
-4.872612E-03,-10.57843E-09
-10.01042E-03,-166.7624E-09
-14.90210E-03,-331.5707E-09
-20.05178E-03,-477.3783E-09
-24.94458E-03,-608.4416E-09
-29.83750E-03,-732.3401E-09
-35.00962E-03,-895.3496E-09
-39.89754E-03,-1.022920E-06
-45.03173E-03,-1.128940E-06
-49.92878E-03,-1.255678E-06
-54.84049E-03,-1.370915E-06
-59.99097E-03,-1.460460E-06
-64.87718E-03,-1.552840E-06
-69.78371E-03,-1.656179E-06
-74.92187E-03,-1.728008E-06
-79.83030E-03,-1.799810E-06
-84.95903E-03,-1.877470E-06
-89.85989E-03,-1.932518E-06
-94.76052E-03,-2.003721E-06
-99.90775E-03,-2.034755E-06
-104.7685E-03,-2.104752E-06
-109.9591E-03,-2.161622E-06
-114.8437E-03,-2.198320E-06
-119.7446E-03,-2.251234E-06
-124.8858E-03,-2.269813E-06
-129.7873E-03,-2.310132E-06
-134.9293E-03,-2.320265E-06
-139.8234E-03,-2.340438E-06
-144.7235E-03,-2.396866E-06
-149.8693E-03,-2.394688E-06
-154.7738E-03,-2.442022E-06
-159.6830E-03,-2.438348E-06
-164.8119E-03,-2.453306E-06
-169.7075E-03,-2.473074E-06
-174.8943E-03,-2.486237E-06
-179.7666E-03,-2.500317E-06
-184.6549E-03,-2.506966E-06
-189.8111E-03,-2.508057E-06
-194.6960E-03,-2.521892E-06
-199.8457E-03,-2.520344E-06
-204.7508E-03,-2.546361E-06
-209.6435E-03,-2.549760E-06
-214.7808E-03,-2.546774E-06
-219.6871E-03,-2.547253E-06
-224.8317E-03,-2.568987E-06
-229.7199E-03,-2.563032E-06
-234.6326E-03,-2.570680E-06
-239.7770E-03,-2.573736E-06
-244.6610E-03,-2.577207E-06
-249.8103E-03,-2.585973E-06
-254.6778E-03,-2.585932E-06
-259.5993E-03,-2.576571E-06
-264.7648E-03,-2.583948E-06
-269.6579E-03,-2.590802E-06
-274.5457E-03,-2.597703E-06
-279.6783E-03,-2.594109E-06
-284.6015E-03,-2.607196E-06
-289.7434E-03,-2.599073E-06
-294.6073E-03,-2.600683E-06
-299.5435E-03,-2.606785E-06
-304.6902E-03,-2.589552E-06
-309.5823E-03,-2.610469E-06
-314.7291E-03,-2.605653E-06
-319.6249E-03,-2.603804E-06
-324.5072E-03,-2.604332E-06
-329.6777E-03,-2.599176E-06
-334.5602E-03,-2.607769E-06
-339.6789E-03,-2.605361E-06
-344.5803E-03,-2.619458E-06
-349.5073E-03,-2.603271E-06
-354.6322E-03,-2.616257E-06
-359.5352E-03,-2.619953E-06
-364.4517E-03,-2.615637E-06
-369.5807E-03,-2.606683E-06
-374.4773E-03,-2.612835E-06
-379.6216E-03,-2.608526E-06
-384.5198E-03,-2.611294E-06
-389.4276E-03,-2.608140E-06
-394.5750E-03,-2.608190E-06
-399.4698E-03,-2.612694E-06
-404.5890E-03,-2.614678E-06
-409.5025E-03,-2.608217E-06
-414.3957E-03,-2.613742E-06
-419.5413E-03,-2.607523E-06
-424.4543E-03,-2.609260E-06
-429.5779E-03,-2.604116E-06
-434.4856E-03,-2.610926E-06
-439.3822E-03,-2.608241E-06
-444.4987E-03,-2.612272E-06
-449.4078E-03,-2.618450E-06
-454.3160E-03,-2.607649E-06
-459.4598E-03,-2.609512E-06
-464.3663E-03,-2.614022E-06
-469.4939E-03,-2.615726E-06
-474.4096E-03,-2.610820E-06
-479.3029E-03,-2.606981E-06
-484.4366E-03,-2.606399E-06
-489.3621E-03,-2.603197E-06
-494.4859E-03,-2.607153E-06
-499.4861E-03,-2.607395E-06

-499.4858E-03,-2.606046E-06
-494.7186E-03,-2.608140E-06
-489.6302E-03,-2.610286E-06
-484.7207E-03,-2.606693E-06
-479.5838E-03,-2.610499E-06
-474.6811E-03,-2.611280E-06
-469.7461E-03,-2.608535E-06
-464.6071E-03,-2.611495E-06
-459.7083E-03,-2.607592E-06
-454.5555E-03,-2.614203E-06
-449.6457E-03,-2.613690E-06
-444.7590E-03,-2.611756E-06
-439.6017E-03,-2.609893E-06
-434.7006E-03,-2.615179E-06
-429.7698E-03,-2.615235E-06
-424.6578E-03,-2.614016E-06
-419.7679E-03,-2.609826E-06
-414.6078E-03,-2.614762E-06
-409.7156E-03,-2.617912E-06
-404.7920E-03,-2.616076E-06
-399.6633E-03,-2.613513E-06
-394.7810E-03,-2.619837E-06
-389.6200E-03,-2.613785E-06
-384.7146E-03,-2.610067E-06
-379.8137E-03,-2.613959E-06
-374.6635E-03,-2.613091E-06
-369.7588E-03,-2.612523E-06
-364.6275E-03,-2.612557E-06
-359.7234E-03,-2.609186E-06
-354.8249E-03,-2.610681E-06
-349.6767E-03,-2.607847E-06
-344.7623E-03,-2.611222E-06
-339.8626E-03,-2.602284E-06
-334.7382E-03,-2.609406E-06
-329.8259E-03,-2.609289E-06
-324.6746E-03,-2.604711E-06
-319.7788E-03,-2.604150E-06
-314.8856E-03,-2.602622E-06
-309.7541E-03,-2.598975E-06
-304.8400E-03,-2.599945E-06
-299.6977E-03,-2.598102E-06
-294.7921E-03,-2.602050E-06
-289.8974E-03,-2.600136E-06
-284.7647E-03,-2.595323E-06
-279.8482E-03,-2.591310E-06
-274.7109E-03,-2.595933E-06
-269.8153E-03,-2.589352E-06
-264.9206E-03,-2.594561E-06
-259.7639E-03,-2.588683E-06
-254.8554E-03,-2.585591E-06
-249.9729E-03,-2.575297E-06
-244.8279E-03,-2.572125E-06
-239.9508E-03,-2.571330E-06
-234.7879E-03,-2.570496E-06
-229.8782E-03,-2.564138E-06
-224.9747E-03,-2.558831E-06
-219.8419E-03,-2.551533E-06
-214.9325E-03,-2.549644E-06
-209.7959E-03,-2.544220E-06
-204.8974E-03,-2.538437E-06
-199.9887E-03,-2.541022E-06
-194.8488E-03,-2.528603E-06
-189.9583E-03,-2.512058E-06
-184.8057E-03,-2.508592E-06
-179.9167E-03,-2.492674E-06
-175.0074E-03,-2.483991E-06
-169.8583E-03,-2.464928E-06
-164.9609E-03,-2.463441E-06
-159.8291E-03,-2.434659E-06
-154.9132E-03,-2.429756E-06
-150.0102E-03,-2.416558E-06
-144.8725E-03,-2.382157E-06
-139.9721E-03,-2.360171E-06
-135.0592E-03,-2.346252E-06
-129.9267E-03,-2.306613E-06
-125.0235E-03,-2.265740E-06
-119.8702E-03,-2.249301E-06
-114.9819E-03,-2.213136E-06
-110.0968E-03,-2.171282E-06
-104.9508E-03,-2.128968E-06
-100.0364E-03,-2.070133E-06
-94.91055E-03,-2.013593E-06
-89.97028E-03,-1.959871E-06
-85.09184E-03,-1.906861E-06
-79.96037E-03,-1.844086E-06
-75.04516E-03,-1.767429E-06
-69.91194E-03,-1.692787E-06
-65.00083E-03,-1.614004E-06
-60.11699E-03,-1.518193E-06
-54.98073E-03,-1.429843E-06
-50.05465E-03,-1.340286E-06
-45.16024E-03,-1.239226E-06
-40.02989E-03,-1.147586E-06
-35.14255E-03,-1.033109E-06
-29.98823E-03,-897.7110E-09
-25.07183E-03,-791.6276E-09
-20.17676E-03,-678.3229E-09
-15.03681E-03,-533.8934E-09
-10.15181E-03,-415.3451E-09
-4.995605E-03,-256.0818E-09
-123.5119E-06,-110.6416E-09
+4.786178E-03,+17.14781E-09
+9.918827E-03,+189.0764E-09
+14.80057E-03,+319.0520E-09
+19.95515E-03,+478.3695E-09
+24.84575E-03,+626.9370E-09
+29.74232E-03,+763.5323E-09
+34.89887E-03,+906.5174E-09
+39.80286E-03,+1.022548E-06
+44.93403E-03,+1.139742E-06
+49.84025E-03,+1.266052E-06
+54.73085E-03,+1.363887E-06
+59.86396E-03,+1.469468E-06
+64.79242E-03,+1.556915E-06
+69.68179E-03,+1.643333E-06
+74.81567E-03,+1.731998E-06
+79.73512E-03,+1.809024E-06
+84.86159E-03,+1.865982E-06
+89.77224E-03,+1.930959E-06
+94.66159E-03,+1.996009E-06
+99.80969E-03,+2.076320E-06
+104.6875E-03,+2.105807E-06
+109.8465E-03,+2.176542E-06
+114.7464E-03,+2.195584E-06
+119.6410E-03,+2.237773E-06
+124.7988E-03,+2.268631E-06
+129.7003E-03,+2.306790E-06
+134.8318E-03,+2.336127E-06
+139.7336E-03,+2.368250E-06
+144.6174E-03,+2.366509E-06
+149.7636E-03,+2.405596E-06
+154.6566E-03,+2.435725E-06
+159.5780E-03,+2.454515E-06
+164.7139E-03,+2.470363E-06
+169.6173E-03,+2.469221E-06
+174.7656E-03,+2.477581E-06
+179.6567E-03,+2.488732E-06
+184.5469E-03,+2.520522E-06
+189.7073E-03,+2.518313E-06
+194.5950E-03,+2.505128E-06
+199.7394E-03,+2.522570E-06
+204.6514E-03,+2.528771E-06
+209.5554E-03,+2.568017E-06
+214.6855E-03,+2.541119E-06
+219.5822E-03,+2.568347E-06
+224.7393E-03,+2.563092E-06
+229.6219E-03,+2.575638E-06
+234.5219E-03,+2.576151E-06
+239.6761E-03,+2.583437E-06
+244.5723E-03,+2.585800E-06
+249.7038E-03,+2.585202E-06
+254.6142E-03,+2.594156E-06
+259.5043E-03,+2.597609E-06
+264.6476E-03,+2.585568E-06
+269.5399E-03,+2.587645E-06
+274.4442E-03,+2.599087E-06
+279.5801E-03,+2.600497E-06
+284.4986E-03,+2.595090E-06
+289.6337E-03,+2.591789E-06
+294.5256E-03,+2.603347E-06
+299.4418E-03,+2.596580E-06
+304.5790E-03,+2.602547E-06
+309.4652E-03,+2.612858E-06
+314.6212E-03,+2.608383E-06
+319.5187E-03,+2.619620E-06
+324.4100E-03,+2.606909E-06
+329.5650E-03,+2.605831E-06
+334.4457E-03,+2.601038E-06
+339.5826E-03,+2.606403E-06
+344.5049E-03,+2.612955E-06
+349.3970E-03,+2.623244E-06
+354.5314E-03,+2.613332E-06
+359.4449E-03,+2.610388E-06
+364.3368E-03,+2.609901E-06
+369.4749E-03,+2.615168E-06
+374.3753E-03,+2.602274E-06
+379.5294E-03,+2.615651E-06
+384.4247E-03,+2.617198E-06
+389.3085E-03,+2.617713E-06
+394.4570E-03,+2.618756E-06
+399.3625E-03,+2.617737E-06
+404.4898E-03,+2.621722E-06
+409.3975E-03,+2.610137E-06
+414.3110E-03,+2.615167E-06
+419.4358E-03,+2.614041E-06
+424.3303E-03,+2.610285E-06
+429.4890E-03,+2.609557E-06
+434.3805E-03,+2.616824E-06
+439.2694E-03,+2.617285E-06
+444.4178E-03,+2.617257E-06
+449.3197E-03,+2.617631E-06
+454.2002E-03,+2.619150E-06
+459.3597E-03,+2.612207E-06
+464.2518E-03,+2.612685E-06
+469.3678E-03,+2.621909E-06
+474.2795E-03,+2.616040E-06
+479.1913E-03,+2.612479E-06
+484.3206E-03,+2.609691E-06
+489.2297E-03,+2.610435E-06
+494.3691E-03,+2.604889E-06
+499.3808E-03,+2.605298E-06

MicroMag 2900/3900 Data File ends
