MicroMag 2900/3900 Data File (Series 0016.002)
Direct moment vs. field; Hysteresis loop

INSTRUMENT
Configuration                   VSM
Temperature control             None
Hardware version                0004
Software version                06/08/2012
Units of measure                Hybrid SI
Temperature in                  Kelvin

SAMPLE
Mass                            N/A
Volume                          N/A
Demagnetizing factor            N/A

SETTINGS
Field range                    +1.000000E+00
Field (command)                 N/A
Moment range                   +5.000000E-06
Averaging time                 +200.0000E-03
Temperature (command)           N/A
Tmprtr difference correction    No
Orientation                     0.000000E+00
Vibration amplitude             1.0
Calibration factor             +3.570920E+00
Operating frequency            +83.00000E+00
Sweep mode                      Discrete
Pause after sweep increment    +300.0000E-03

MEASUREMENT
Description                    "DQ15-33B1"
Field (measured)                N/A
Temperature (measured)          N/A
Averages (completed)            1
Measured on                     10/29/2016  15:54
Elapsed time                   +207.0157E+00

PROCESSING
Background subtraction          No
Delta-m processing              N/A
Demagnetizing factor            No
Normalization                   No
Normalization factor            N/A
Offset (field)                  No
Offset (moment)                 No
Pole saturation                 No
Slope correction                No

VIEWPORT
Left                           -500.0000E-03
Right                          +500.0000E-03
Bottom                         -5.000000E-06
Top                            +5.000000E-06
Show X-axis?                    Yes
Show Y-axis?                    Yes

CHARACTERIZATION
Initial slope                   N/A
Saturation                     +2.633290E-06
Remanence                      +120.4982E-09
Coercivity                     +4.299519E-03
S*                             +751.3507E-06

SCRIPT
Averages (target)               1
Averaging time                 +200.0000E-03
Demagnetize?                    No
Maximum field                  +500.0000E-03
Field increment                +5.000000E-03
Hysteresis loop?                Yes
Initial magnetization?          No
Pause                          +1.000000E+00
Saturate before measuring?      No
Number of segments              2
Number of data                  402

Segment   Averaging      Initial        Field         Final                    Final 
 Number      Time         Field       Increment       Field         Pause      Index 
             (s)           (T)           (T)           (T)           (s)     
0000001,+200.0000E-03,+500.0000E-03,+5.000000E-03,-500.0000E-03,+1.000000E+00,0000201
0000002,+200.0000E-03,-500.0000E-03,+5.000000E-03,+500.0000E-03,+1.000000E+00,0000402

                           
    Field         Moment   
     (T)          (Am²)    
+499.3610E-03,+2.635310E-06
+494.5845E-03,+2.635774E-06
+489.4767E-03,+2.635923E-06
+484.5578E-03,+2.634912E-06
+479.4097E-03,+2.641232E-06
+474.4953E-03,+2.641268E-06
+469.5897E-03,+2.638288E-06
+464.4475E-03,+2.642301E-06
+459.5498E-03,+2.638826E-06
+454.4022E-03,+2.642209E-06
+449.4956E-03,+2.637883E-06
+444.6074E-03,+2.643319E-06
+439.4667E-03,+2.640448E-06
+434.5568E-03,+2.637812E-06
+429.6452E-03,+2.640598E-06
+424.5041E-03,+2.637059E-06
+419.6119E-03,+2.642424E-06
+414.4733E-03,+2.638110E-06
+409.5628E-03,+2.643862E-06
+404.6585E-03,+2.642155E-06
+399.5202E-03,+2.642572E-06
+394.6107E-03,+2.642171E-06
+389.4678E-03,+2.643899E-06
+384.5706E-03,+2.644944E-06
+379.6796E-03,+2.643079E-06
+374.5203E-03,+2.642820E-06
+369.6286E-03,+2.639984E-06
+364.4913E-03,+2.636441E-06
+359.5788E-03,+2.639305E-06
+354.6742E-03,+2.641488E-06
+349.5366E-03,+2.639648E-06
+344.6392E-03,+2.639186E-06
+339.7311E-03,+2.635383E-06
+334.5965E-03,+2.640902E-06
+329.7058E-03,+2.633803E-06
+324.5492E-03,+2.636847E-06
+319.6599E-03,+2.636202E-06
+314.7495E-03,+2.627004E-06
+309.6021E-03,+2.633203E-06
+304.7045E-03,+2.633341E-06
+299.5727E-03,+2.630680E-06
+294.6678E-03,+2.624981E-06
+289.7749E-03,+2.625538E-06
+284.6400E-03,+2.628028E-06
+279.7121E-03,+2.623626E-06
+274.5855E-03,+2.621425E-06
+269.6792E-03,+2.621350E-06
+264.7727E-03,+2.613795E-06
+259.6235E-03,+2.621258E-06
+254.7393E-03,+2.609026E-06
+249.8333E-03,+2.609376E-06
+244.6976E-03,+2.607598E-06
+239.7947E-03,+2.603402E-06
+234.6493E-03,+2.600760E-06
+229.7468E-03,+2.596979E-06
+224.8569E-03,+2.590061E-06
+219.7084E-03,+2.583765E-06
+214.8001E-03,+2.579318E-06
+209.6649E-03,+2.569977E-06
+204.7653E-03,+2.567527E-06
+199.8591E-03,+2.562800E-06
+194.7283E-03,+2.553239E-06
+189.8347E-03,+2.537233E-06
+184.6798E-03,+2.528531E-06
+179.7890E-03,+2.525721E-06
+174.8793E-03,+2.515989E-06
+169.7351E-03,+2.495852E-06
+164.8439E-03,+2.485730E-06
+159.7006E-03,+2.477534E-06
+154.7820E-03,+2.457874E-06
+149.8791E-03,+2.434893E-06
+144.7397E-03,+2.404074E-06
+139.8430E-03,+2.383851E-06
+134.9426E-03,+2.370978E-06
+129.8080E-03,+2.335405E-06
+124.9066E-03,+2.302290E-06
+119.7648E-03,+2.274266E-06
+114.8667E-03,+2.233735E-06
+109.9739E-03,+2.189493E-06
+104.8192E-03,+2.151493E-06
+99.92436E-03,+2.090402E-06
+94.78386E-03,+2.039302E-06
+89.87758E-03,+1.986262E-06
+84.98784E-03,+1.926107E-06
+79.84429E-03,+1.857377E-06
+74.92469E-03,+1.788315E-06
+69.80040E-03,+1.712436E-06
+64.89115E-03,+1.628165E-06
+59.99056E-03,+1.548364E-06
+54.86155E-03,+1.459370E-06
+49.94158E-03,+1.363781E-06
+45.04949E-03,+1.269828E-06
+39.91109E-03,+1.149025E-06
+35.01674E-03,+1.039991E-06
+29.85096E-03,+911.9092E-09
+24.96826E-03,+795.1240E-09
+20.06424E-03,+688.1214E-09
+14.91202E-03,+559.7147E-09
+10.03892E-03,+422.5734E-09
+4.899955E-03,+281.0135E-09
-6.343301E-06,+126.6276E-09
-4.888513E-03,-10.96276E-09
-10.01841E-03,-174.8360E-09
-14.91959E-03,-325.8845E-09
-20.06362E-03,-480.5773E-09
-24.96416E-03,-615.0306E-09
-29.86653E-03,-771.0159E-09
-35.02290E-03,-896.9069E-09
-39.91668E-03,-1.013044E-06
-45.05831E-03,-1.139359E-06
-49.95324E-03,-1.268951E-06
-54.85277E-03,-1.374303E-06
-59.99596E-03,-1.471432E-06
-64.89795E-03,-1.570257E-06
-69.78741E-03,-1.646628E-06
-74.93233E-03,-1.736247E-06
-79.84271E-03,-1.817679E-06
-84.98528E-03,-1.884086E-06
-89.86949E-03,-1.945408E-06
-94.78580E-03,-2.002678E-06
-99.92688E-03,-2.072067E-06
-104.8219E-03,-2.124964E-06
-109.9643E-03,-2.163346E-06
-114.8654E-03,-2.212273E-06
-119.7568E-03,-2.252652E-06
-124.8922E-03,-2.291558E-06
-129.8056E-03,-2.319221E-06
-134.9364E-03,-2.350203E-06
-139.8351E-03,-2.379960E-06
-144.7343E-03,-2.408451E-06
-149.8735E-03,-2.421699E-06
-154.7830E-03,-2.443285E-06
-159.7013E-03,-2.458624E-06
-164.8240E-03,-2.467493E-06
-169.7220E-03,-2.490449E-06
-174.8745E-03,-2.504801E-06
-179.7822E-03,-2.513305E-06
-184.6741E-03,-2.528277E-06
-189.8114E-03,-2.541308E-06
-194.6992E-03,-2.558994E-06
-199.8375E-03,-2.551139E-06
-204.7523E-03,-2.564808E-06
-209.6473E-03,-2.572836E-06
-214.7902E-03,-2.573752E-06
-219.6930E-03,-2.582575E-06
-224.8369E-03,-2.582739E-06
-229.7331E-03,-2.597073E-06
-234.6380E-03,-2.594481E-06
-239.7882E-03,-2.604689E-06
-244.6788E-03,-2.606576E-06
-249.8159E-03,-2.604893E-06
-254.7075E-03,-2.598610E-06
-259.6143E-03,-2.603036E-06
-264.7576E-03,-2.614777E-06
-269.6592E-03,-2.619866E-06
-274.5495E-03,-2.618302E-06
-279.6924E-03,-2.621754E-06
-284.6065E-03,-2.628426E-06
-289.7399E-03,-2.625891E-06
-294.6331E-03,-2.629035E-06
-299.5445E-03,-2.630218E-06
-304.6820E-03,-2.629585E-06
-309.5922E-03,-2.623643E-06
-314.7341E-03,-2.631605E-06
-319.6250E-03,-2.631305E-06
-324.5276E-03,-2.630538E-06
-329.6662E-03,-2.631586E-06
-334.5671E-03,-2.629835E-06
-339.6946E-03,-2.633285E-06
-344.5963E-03,-2.634859E-06
-349.5020E-03,-2.630966E-06
-354.6446E-03,-2.637622E-06
-359.5472E-03,-2.639598E-06
-364.4613E-03,-2.635492E-06
-369.5849E-03,-2.639786E-06
-374.4806E-03,-2.633117E-06
-379.6332E-03,-2.632964E-06
-384.5334E-03,-2.636366E-06
-389.4208E-03,-2.635397E-06
-394.5782E-03,-2.639968E-06
-399.4661E-03,-2.633668E-06
-404.6032E-03,-2.634747E-06
-409.5198E-03,-2.637601E-06
-414.4107E-03,-2.639679E-06
-419.5514E-03,-2.638395E-06
-424.4415E-03,-2.635054E-06
-429.5741E-03,-2.639600E-06
-434.4852E-03,-2.636519E-06
-439.3943E-03,-2.627887E-06
-444.5372E-03,-2.636659E-06
-449.4275E-03,-2.634086E-06
-454.3182E-03,-2.639599E-06
-459.4707E-03,-2.637637E-06
-464.3657E-03,-2.636424E-06
-469.5037E-03,-2.636898E-06
-474.4225E-03,-2.633586E-06
-479.3142E-03,-2.636849E-06
-484.4416E-03,-2.633938E-06
-489.3636E-03,-2.631271E-06
-494.4942E-03,-2.634762E-06
-499.4593E-03,-2.629232E-06

-499.4664E-03,-2.631978E-06
-494.6909E-03,-2.631842E-06
-489.5835E-03,-2.632652E-06
-484.6720E-03,-2.631510E-06
-479.5365E-03,-2.633911E-06
-474.6314E-03,-2.633653E-06
-469.7048E-03,-2.637481E-06
-464.5698E-03,-2.631514E-06
-459.6652E-03,-2.637450E-06
-454.5131E-03,-2.638762E-06
-449.6054E-03,-2.637204E-06
-444.7150E-03,-2.639768E-06
-439.5734E-03,-2.639728E-06
-434.6543E-03,-2.635157E-06
-429.7518E-03,-2.637045E-06
-424.6120E-03,-2.640423E-06
-419.7040E-03,-2.638315E-06
-414.5730E-03,-2.641621E-06
-409.6746E-03,-2.638767E-06
-404.7602E-03,-2.635126E-06
-399.6234E-03,-2.638942E-06
-394.7367E-03,-2.635891E-06
-389.5776E-03,-2.635452E-06
-384.6963E-03,-2.634734E-06
-379.7781E-03,-2.640880E-06
-374.6302E-03,-2.637800E-06
-369.7347E-03,-2.636059E-06
-364.5908E-03,-2.638292E-06
-359.6931E-03,-2.637102E-06
-354.7836E-03,-2.632748E-06
-349.6450E-03,-2.639189E-06
-344.7282E-03,-2.639574E-06
-339.8308E-03,-2.633851E-06
-334.7116E-03,-2.633739E-06
-329.8034E-03,-2.633950E-06
-324.6650E-03,-2.631934E-06
-319.7647E-03,-2.624240E-06
-314.8666E-03,-2.632891E-06
-309.7176E-03,-2.626010E-06
-304.8155E-03,-2.629963E-06
-299.6833E-03,-2.627879E-06
-294.7628E-03,-2.627661E-06
-289.8813E-03,-2.627526E-06
-284.7351E-03,-2.627182E-06
-279.8202E-03,-2.616682E-06
-274.6744E-03,-2.618538E-06
-269.7795E-03,-2.617669E-06
-264.8840E-03,-2.613805E-06
-259.7383E-03,-2.614231E-06
-254.8427E-03,-2.610204E-06
-249.9356E-03,-2.608887E-06
-244.7961E-03,-2.602320E-06
-239.9078E-03,-2.601660E-06
-234.7680E-03,-2.595718E-06
-229.8594E-03,-2.586957E-06
-224.9538E-03,-2.588652E-06
-219.8189E-03,-2.580918E-06
-214.9080E-03,-2.575996E-06
-209.7718E-03,-2.568833E-06
-204.8743E-03,-2.560191E-06
-199.9547E-03,-2.562603E-06
-194.8201E-03,-2.545443E-06
-189.9332E-03,-2.539372E-06
-184.7860E-03,-2.536523E-06
-179.8934E-03,-2.521846E-06
-174.9813E-03,-2.506044E-06
-169.8409E-03,-2.492998E-06
-164.9384E-03,-2.476340E-06
-159.8102E-03,-2.473193E-06
-154.8865E-03,-2.450657E-06
-149.9909E-03,-2.428556E-06
-144.8533E-03,-2.407810E-06
-139.9530E-03,-2.388674E-06
-135.0446E-03,-2.363468E-06
-129.9169E-03,-2.323701E-06
-124.9990E-03,-2.302173E-06
-119.8694E-03,-2.263684E-06
-114.9663E-03,-2.225226E-06
-110.0766E-03,-2.184730E-06
-104.9293E-03,-2.147918E-06
-100.0281E-03,-2.092547E-06
-94.88967E-03,-2.035875E-06
-89.98098E-03,-1.976996E-06
-85.08757E-03,-1.924954E-06
-79.94716E-03,-1.859906E-06
-75.03470E-03,-1.784080E-06
-69.90819E-03,-1.711433E-06
-64.99599E-03,-1.625110E-06
-60.11201E-03,-1.542947E-06
-54.95828E-03,-1.453389E-06
-50.05199E-03,-1.352812E-06
-45.16375E-03,-1.258590E-06
-40.02341E-03,-1.150578E-06
-35.13154E-03,-1.044320E-06
-29.97709E-03,-920.8508E-09
-25.06361E-03,-800.4695E-09
-20.16987E-03,-678.9701E-09
-15.02177E-03,-536.9183E-09
-10.11954E-03,-410.4392E-09
-4.988028E-03,-267.3942E-09
-116.6812E-06,-117.4186E-09
+4.797129E-03,+19.42796E-09
+9.931931E-03,+174.2889E-09
+14.81421E-03,+329.9967E-09
+19.95688E-03,+482.0233E-09
+24.85729E-03,+627.4780E-09
+29.74495E-03,+760.7891E-09
+34.90948E-03,+900.1629E-09
+39.81114E-03,+1.035063E-06
+44.94300E-03,+1.146145E-06
+49.84163E-03,+1.272009E-06
+54.73495E-03,+1.366721E-06
+59.88527E-03,+1.493320E-06
+64.78563E-03,+1.572366E-06
+69.69777E-03,+1.659929E-06
+74.82000E-03,+1.746925E-06
+79.73932E-03,+1.827046E-06
+84.87624E-03,+1.889328E-06
+89.77321E-03,+1.954553E-06
+94.67584E-03,+2.010795E-06
+99.80285E-03,+2.083849E-06
+104.7132E-03,+2.131181E-06
+109.8598E-03,+2.174110E-06
+114.7588E-03,+2.222725E-06
+119.6608E-03,+2.267054E-06
+124.7987E-03,+2.289404E-06
+129.6955E-03,+2.328218E-06
+134.8346E-03,+2.350051E-06
+139.7300E-03,+2.388389E-06
+144.6354E-03,+2.415633E-06
+149.7713E-03,+2.441127E-06
+154.6779E-03,+2.451033E-06
+159.5847E-03,+2.481539E-06
+164.7240E-03,+2.479027E-06
+169.6150E-03,+2.488932E-06
+174.7608E-03,+2.510505E-06
+179.6759E-03,+2.530626E-06
+184.5535E-03,+2.532119E-06
+189.7054E-03,+2.537596E-06
+194.6139E-03,+2.542485E-06
+199.7376E-03,+2.558560E-06
+204.6435E-03,+2.566386E-06
+209.5419E-03,+2.573383E-06
+214.6811E-03,+2.583958E-06
+219.5900E-03,+2.587171E-06
+224.7253E-03,+2.589836E-06
+229.6275E-03,+2.584956E-06
+234.5197E-03,+2.609486E-06
+239.6775E-03,+2.604616E-06
+244.5751E-03,+2.602140E-06
+249.7097E-03,+2.603509E-06
+254.6053E-03,+2.608620E-06
+259.5131E-03,+2.611725E-06
+264.6427E-03,+2.618637E-06
+269.5567E-03,+2.621805E-06
+274.4465E-03,+2.622504E-06
+279.5854E-03,+2.621713E-06
+284.5109E-03,+2.614632E-06
+289.6450E-03,+2.627223E-06
+294.5224E-03,+2.636320E-06
+299.4453E-03,+2.628401E-06
+304.5730E-03,+2.631717E-06
+309.4693E-03,+2.632723E-06
+314.6200E-03,+2.636944E-06
+319.5242E-03,+2.637711E-06
+324.4131E-03,+2.638082E-06
+329.5583E-03,+2.643377E-06
+334.4557E-03,+2.639274E-06
+339.5905E-03,+2.632615E-06
+344.4912E-03,+2.637419E-06
+349.4033E-03,+2.638232E-06
+354.5325E-03,+2.636611E-06
+359.4381E-03,+2.638430E-06
+364.3303E-03,+2.641315E-06
+369.4720E-03,+2.639159E-06
+374.3814E-03,+2.639111E-06
+379.5235E-03,+2.644903E-06
+384.4152E-03,+2.641020E-06
+389.3008E-03,+2.646849E-06
+394.4576E-03,+2.641641E-06
+399.3692E-03,+2.640991E-06
+404.4922E-03,+2.643081E-06
+409.4023E-03,+2.635616E-06
+414.3048E-03,+2.640018E-06
+419.4373E-03,+2.638899E-06
+424.3297E-03,+2.644164E-06
+429.4726E-03,+2.640793E-06
+434.3732E-03,+2.641972E-06
+439.2809E-03,+2.636508E-06
+444.4247E-03,+2.640600E-06
+449.3098E-03,+2.640757E-06
+454.2069E-03,+2.641584E-06
+459.3506E-03,+2.639240E-06
+464.2503E-03,+2.640485E-06
+469.3812E-03,+2.633162E-06
+474.2947E-03,+2.641289E-06
+479.1866E-03,+2.631098E-06
+484.3244E-03,+2.640275E-06
+489.2432E-03,+2.636652E-06
+494.3690E-03,+2.639850E-06
+499.3497E-03,+2.638474E-06

MicroMag 2900/3900 Data File ends
