MicroMag 2900/3900 Data File (Series 0016.002)
Direct moment vs. field; Hysteresis loop

INSTRUMENT
Configuration                   VSM
Temperature control             None
Hardware version                0004
Software version                06/08/2012
Units of measure                Hybrid SI
Temperature in                  Kelvin

SAMPLE
Mass                            N/A
Volume                          N/A
Demagnetizing factor            N/A

SETTINGS
Field range                    +1.000000E+00
Field (command)                 N/A
Moment range                   +5.000000E-06
Averaging time                 +200.0000E-03
Temperature (command)           N/A
Tmprtr difference correction    No
Orientation                     0.000000E+00
Vibration amplitude             1.0
Calibration factor             +3.570920E+00
Operating frequency            +83.00000E+00
Sweep mode                      Discrete
Pause after sweep increment    +300.0000E-03

MEASUREMENT
Description                    "DQ15-33B1"
Field (measured)                N/A
Temperature (measured)          N/A
Averages (completed)            1
Measured on                     10/29/2016  15:43
Elapsed time                   +207.0995E+00

PROCESSING
Background subtraction          No
Delta-m processing              N/A
Demagnetizing factor            No
Normalization                   No
Normalization factor            N/A
Offset (field)                  No
Offset (moment)                 No
Pole saturation                 No
Slope correction                No

VIEWPORT
Left                           -500.0000E-03
Right                          +500.0000E-03
Bottom                         -5.000000E-06
Top                            +5.000000E-06
Show X-axis?                    Yes
Show Y-axis?                    Yes

CHARACTERIZATION
Initial slope                   N/A
Saturation                     +2.630606E-06
Remanence                      +123.4371E-09
Coercivity                     +4.180303E-03
S*                             +4.690313E-03

SCRIPT
Averages (target)               1
Averaging time                 +200.0000E-03
Demagnetize?                    No
Maximum field                  +500.0000E-03
Field increment                +5.000000E-03
Hysteresis loop?                Yes
Initial magnetization?          No
Pause                          +1.000000E+00
Saturate before measuring?      No
Number of segments              2
Number of data                  402

Segment   Averaging      Initial        Field         Final                    Final 
 Number      Time         Field       Increment       Field         Pause      Index 
             (s)           (T)           (T)           (T)           (s)     
0000001,+200.0000E-03,+500.0000E-03,+5.000000E-03,-500.0000E-03,+1.000000E+00,0000201
0000002,+200.0000E-03,-500.0000E-03,+5.000000E-03,+500.0000E-03,+1.000000E+00,0000402

                           
    Field         Moment   
     (T)          (Am²)    
+499.3561E-03,+2.634492E-06
+494.5751E-03,+2.635586E-06
+489.4674E-03,+2.634869E-06
+484.5474E-03,+2.632621E-06
+479.4126E-03,+2.632040E-06
+474.4973E-03,+2.634987E-06
+469.5854E-03,+2.634503E-06
+464.4547E-03,+2.638158E-06
+459.5541E-03,+2.634024E-06
+454.3930E-03,+2.634981E-06
+449.4985E-03,+2.638030E-06
+444.6128E-03,+2.638237E-06
+439.4538E-03,+2.636808E-06
+434.5341E-03,+2.641248E-06
+429.6395E-03,+2.635382E-06
+424.5083E-03,+2.635718E-06
+419.6081E-03,+2.638453E-06
+414.4630E-03,+2.641830E-06
+409.5651E-03,+2.637496E-06
+404.6526E-03,+2.643613E-06
+399.5186E-03,+2.639149E-06
+394.6119E-03,+2.640303E-06
+389.4722E-03,+2.638820E-06
+384.5728E-03,+2.640344E-06
+379.6745E-03,+2.637158E-06
+374.5234E-03,+2.636481E-06
+369.6316E-03,+2.638184E-06
+364.4855E-03,+2.637028E-06
+359.5833E-03,+2.639992E-06
+354.6762E-03,+2.643072E-06
+349.5372E-03,+2.633408E-06
+344.6340E-03,+2.639638E-06
+339.7354E-03,+2.633561E-06
+334.5938E-03,+2.635041E-06
+329.6966E-03,+2.635430E-06
+324.5461E-03,+2.634529E-06
+319.6584E-03,+2.629054E-06
+314.7482E-03,+2.629707E-06
+309.6011E-03,+2.632072E-06
+304.7041E-03,+2.633792E-06
+299.5770E-03,+2.625666E-06
+294.6619E-03,+2.624939E-06
+289.7784E-03,+2.624266E-06
+284.6363E-03,+2.622652E-06
+279.7128E-03,+2.621525E-06
+274.5902E-03,+2.616591E-06
+269.6816E-03,+2.616416E-06
+264.7742E-03,+2.609784E-06
+259.6426E-03,+2.612374E-06
+254.7350E-03,+2.610832E-06
+249.8444E-03,+2.604961E-06
+244.7069E-03,+2.600060E-06
+239.7953E-03,+2.602970E-06
+234.6300E-03,+2.595371E-06
+229.7539E-03,+2.590519E-06
+224.8569E-03,+2.583976E-06
+219.7191E-03,+2.582075E-06
+214.8021E-03,+2.572523E-06
+209.6695E-03,+2.572214E-06
+204.7642E-03,+2.565304E-06
+199.8458E-03,+2.563097E-06
+194.7242E-03,+2.547351E-06
+189.8268E-03,+2.542360E-06
+184.6702E-03,+2.534955E-06
+179.7946E-03,+2.518482E-06
+174.8788E-03,+2.511367E-06
+169.7239E-03,+2.496865E-06
+164.8284E-03,+2.484299E-06
+159.7026E-03,+2.469120E-06
+154.7773E-03,+2.453321E-06
+149.8825E-03,+2.440789E-06
+144.7433E-03,+2.405144E-06
+139.8402E-03,+2.389206E-06
+134.9417E-03,+2.359684E-06
+129.8072E-03,+2.330859E-06
+124.9094E-03,+2.306872E-06
+119.7629E-03,+2.269972E-06
+114.8631E-03,+2.231038E-06
+109.9644E-03,+2.188486E-06
+104.8195E-03,+2.140273E-06
+99.92113E-03,+2.101915E-06
+94.77751E-03,+2.049595E-06
+89.87059E-03,+1.988688E-06
+84.98474E-03,+1.925110E-06
+79.84716E-03,+1.856083E-06
+74.92706E-03,+1.778401E-06
+69.79428E-03,+1.715485E-06
+64.89043E-03,+1.633238E-06
+59.98954E-03,+1.541428E-06
+54.84810E-03,+1.448825E-06
+49.94109E-03,+1.357872E-06
+45.04659E-03,+1.259970E-06
+39.91019E-03,+1.162372E-06
+35.01181E-03,+1.039013E-06
+29.85239E-03,+928.0672E-09
+24.95838E-03,+802.1426E-09
+20.05711E-03,+683.4890E-09
+14.91017E-03,+543.8530E-09
+10.03212E-03,+418.3131E-09
+4.893559E-03,+279.6818E-09
-5.636633E-06,+127.8042E-09
-4.888277E-03,-7.181944E-09
-10.02443E-03,-161.4751E-09
-14.91572E-03,-319.5814E-09
-20.07260E-03,-475.9532E-09
-24.96454E-03,-609.8080E-09
-29.86962E-03,-763.3051E-09
-35.02178E-03,-902.2759E-09
-39.91104E-03,-1.025295E-06
-45.05210E-03,-1.140783E-06
-49.95621E-03,-1.260684E-06
-54.85810E-03,-1.366785E-06
-59.98485E-03,-1.463283E-06
-64.88777E-03,-1.562547E-06
-69.79653E-03,-1.658570E-06
-74.93236E-03,-1.741363E-06
-79.84260E-03,-1.809136E-06
-84.97763E-03,-1.888456E-06
-89.87214E-03,-1.958746E-06
-94.78410E-03,-2.017533E-06
-99.92437E-03,-2.069161E-06
-104.8299E-03,-2.127894E-06
-109.9786E-03,-2.177581E-06
-114.8664E-03,-2.211302E-06
-119.7629E-03,-2.258469E-06
-124.8927E-03,-2.283167E-06
-129.8096E-03,-2.316570E-06
-134.9339E-03,-2.349067E-06
-139.8368E-03,-2.386407E-06
-144.7526E-03,-2.388090E-06
-149.8914E-03,-2.430051E-06
-154.7855E-03,-2.431296E-06
-159.6999E-03,-2.456052E-06
-164.8278E-03,-2.476275E-06
-169.7303E-03,-2.487491E-06
-174.8808E-03,-2.504803E-06
-179.7851E-03,-2.515500E-06
-184.6761E-03,-2.524926E-06
-189.8276E-03,-2.534214E-06
-194.7039E-03,-2.544644E-06
-199.8420E-03,-2.547285E-06
-204.7556E-03,-2.571096E-06
-209.6530E-03,-2.568830E-06
-214.7883E-03,-2.576082E-06
-219.6996E-03,-2.577594E-06
-224.8388E-03,-2.592475E-06
-229.7352E-03,-2.580095E-06
-234.6348E-03,-2.590071E-06
-239.7934E-03,-2.595886E-06
-244.6826E-03,-2.601537E-06
-249.8156E-03,-2.595982E-06
-254.7255E-03,-2.614523E-06
-259.6179E-03,-2.612067E-06
-264.7648E-03,-2.606274E-06
-269.6592E-03,-2.607126E-06
-274.5524E-03,-2.612885E-06
-279.6952E-03,-2.622482E-06
-284.6138E-03,-2.616462E-06
-289.7465E-03,-2.627025E-06
-294.6362E-03,-2.628096E-06
-299.5475E-03,-2.627516E-06
-304.6745E-03,-2.631118E-06
-309.5873E-03,-2.623446E-06
-314.7395E-03,-2.625766E-06
-319.6307E-03,-2.629053E-06
-324.5224E-03,-2.625334E-06
-329.6636E-03,-2.628029E-06
-334.5731E-03,-2.633100E-06
-339.7002E-03,-2.633177E-06
-344.5993E-03,-2.625461E-06
-349.5037E-03,-2.634620E-06
-354.6411E-03,-2.632057E-06
-359.5564E-03,-2.634953E-06
-364.4531E-03,-2.636004E-06
-369.5871E-03,-2.634127E-06
-374.4806E-03,-2.630863E-06
-379.6321E-03,-2.633717E-06
-384.5328E-03,-2.641212E-06
-389.4276E-03,-2.639126E-06
-394.5803E-03,-2.634394E-06
-399.4730E-03,-2.640435E-06
-404.6017E-03,-2.638305E-06
-409.5218E-03,-2.636014E-06
-414.4219E-03,-2.634742E-06
-419.5478E-03,-2.635257E-06
-424.4524E-03,-2.627170E-06
-429.5833E-03,-2.634339E-06
-434.4886E-03,-2.632132E-06
-439.3871E-03,-2.629485E-06
-444.5356E-03,-2.635019E-06
-449.4270E-03,-2.639226E-06
-454.3222E-03,-2.630239E-06
-459.4683E-03,-2.632714E-06
-464.3720E-03,-2.634679E-06
-469.5056E-03,-2.630735E-06
-474.4112E-03,-2.632667E-06
-479.3255E-03,-2.635205E-06
-484.4398E-03,-2.629218E-06
-489.3703E-03,-2.631137E-06
-494.5007E-03,-2.634585E-06
-499.4527E-03,-2.630444E-06

-499.4692E-03,-2.626361E-06
-494.6984E-03,-2.627549E-06
-489.5837E-03,-2.629920E-06
-484.6732E-03,-2.629703E-06
-479.5457E-03,-2.629272E-06
-474.6338E-03,-2.630281E-06
-469.7104E-03,-2.636459E-06
-464.5641E-03,-2.635878E-06
-459.6643E-03,-2.633706E-06
-454.5101E-03,-2.634572E-06
-449.6058E-03,-2.632011E-06
-444.7193E-03,-2.634476E-06
-439.5703E-03,-2.633728E-06
-434.6586E-03,-2.636523E-06
-429.7618E-03,-2.636450E-06
-424.6182E-03,-2.631896E-06
-419.7060E-03,-2.630560E-06
-414.5782E-03,-2.639682E-06
-409.6764E-03,-2.637715E-06
-404.7604E-03,-2.639209E-06
-399.6339E-03,-2.639288E-06
-394.7376E-03,-2.633741E-06
-389.5920E-03,-2.632805E-06
-384.6878E-03,-2.639074E-06
-379.7862E-03,-2.637637E-06
-374.6297E-03,-2.637688E-06
-369.7329E-03,-2.632653E-06
-364.6012E-03,-2.633295E-06
-359.6924E-03,-2.631686E-06
-354.7910E-03,-2.630658E-06
-349.6535E-03,-2.635828E-06
-344.7368E-03,-2.632045E-06
-339.8378E-03,-2.631221E-06
-334.7137E-03,-2.633936E-06
-329.8056E-03,-2.633151E-06
-324.6642E-03,-2.633218E-06
-319.7609E-03,-2.629645E-06
-314.8613E-03,-2.627933E-06
-309.7219E-03,-2.623193E-06
-304.8122E-03,-2.626881E-06
-299.6818E-03,-2.628197E-06
-294.7606E-03,-2.619697E-06
-289.8811E-03,-2.620208E-06
-284.7449E-03,-2.621591E-06
-279.8122E-03,-2.614864E-06
-274.6802E-03,-2.616350E-06
-269.7856E-03,-2.614362E-06
-264.8843E-03,-2.607040E-06
-259.7511E-03,-2.605262E-06
-254.8351E-03,-2.608323E-06
-249.9432E-03,-2.599294E-06
-244.8025E-03,-2.601226E-06
-239.9209E-03,-2.595948E-06
-234.7649E-03,-2.594038E-06
-229.8469E-03,-2.590601E-06
-224.9683E-03,-2.588411E-06
-219.8238E-03,-2.575832E-06
-214.9106E-03,-2.572822E-06
-209.7647E-03,-2.566606E-06
-204.8761E-03,-2.559358E-06
-199.9555E-03,-2.553364E-06
-194.8199E-03,-2.546560E-06
-189.9405E-03,-2.530914E-06
-184.7872E-03,-2.526055E-06
-179.8872E-03,-2.511621E-06
-174.9898E-03,-2.508696E-06
-169.8384E-03,-2.496142E-06
-164.9497E-03,-2.481049E-06
-159.8009E-03,-2.461820E-06
-154.8907E-03,-2.442274E-06
-149.9999E-03,-2.426734E-06
-144.8587E-03,-2.396890E-06
-139.9499E-03,-2.378661E-06
-135.0489E-03,-2.354372E-06
-129.9210E-03,-2.327762E-06
-125.0054E-03,-2.299959E-06
-119.8658E-03,-2.262919E-06
-114.9717E-03,-2.226818E-06
-110.0770E-03,-2.186094E-06
-104.9308E-03,-2.131952E-06
-100.0190E-03,-2.091826E-06
-94.88288E-03,-2.032934E-06
-89.96651E-03,-1.968585E-06
-85.08187E-03,-1.916059E-06
-79.94828E-03,-1.844792E-06
-75.03355E-03,-1.785500E-06
-69.89263E-03,-1.708697E-06
-64.99594E-03,-1.617054E-06
-60.09925E-03,-1.543477E-06
-54.95090E-03,-1.451431E-06
-50.05930E-03,-1.354783E-06
-45.16315E-03,-1.245684E-06
-40.02858E-03,-1.147587E-06
-35.12783E-03,-1.049684E-06
-29.96971E-03,-909.0334E-09
-25.06759E-03,-796.2669E-09
-20.16961E-03,-676.9418E-09
-15.02440E-03,-545.3550E-09
-10.12136E-03,-409.4469E-09
-4.992112E-03,-265.9758E-09
-114.4417E-06,-122.5411E-09
+4.796836E-03,+33.91935E-09
+9.926147E-03,+174.8035E-09
+14.81129E-03,+326.0484E-09
+19.95701E-03,+487.4942E-09
+24.84810E-03,+623.4044E-09
+29.74045E-03,+763.0946E-09
+34.90673E-03,+913.5022E-09
+39.80501E-03,+1.032350E-06
+44.94646E-03,+1.151540E-06
+49.84091E-03,+1.277566E-06
+54.74272E-03,+1.373489E-06
+59.88732E-03,+1.474930E-06
+64.79385E-03,+1.568395E-06
+69.69135E-03,+1.661549E-06
+74.81208E-03,+1.743924E-06
+79.74783E-03,+1.820861E-06
+84.87943E-03,+1.899807E-06
+89.77631E-03,+1.946577E-06
+94.68441E-03,+2.010943E-06
+99.82353E-03,+2.061833E-06
+104.7098E-03,+2.124521E-06
+109.8583E-03,+2.166388E-06
+114.7597E-03,+2.214881E-06
+119.6559E-03,+2.262417E-06
+124.7989E-03,+2.302919E-06
+129.6983E-03,+2.326020E-06
+134.8375E-03,+2.364092E-06
+139.7351E-03,+2.392839E-06
+144.6372E-03,+2.412973E-06
+149.7676E-03,+2.431997E-06
+154.6740E-03,+2.456147E-06
+159.5862E-03,+2.462594E-06
+164.7186E-03,+2.481520E-06
+169.6105E-03,+2.502146E-06
+174.7746E-03,+2.514822E-06
+179.6821E-03,+2.522085E-06
+184.5546E-03,+2.518659E-06
+189.7087E-03,+2.549978E-06
+194.6152E-03,+2.547164E-06
+199.7377E-03,+2.563956E-06
+204.6471E-03,+2.560600E-06
+209.5517E-03,+2.572211E-06
+214.6837E-03,+2.576828E-06
+219.5829E-03,+2.584304E-06
+224.7300E-03,+2.588345E-06
+229.6283E-03,+2.589097E-06
+234.5156E-03,+2.601111E-06
+239.6794E-03,+2.594321E-06
+244.5734E-03,+2.595844E-06
+249.7157E-03,+2.605142E-06
+254.6122E-03,+2.604724E-06
+259.5046E-03,+2.605979E-06
+264.6407E-03,+2.611401E-06
+269.5551E-03,+2.611354E-06
+274.4487E-03,+2.616681E-06
+279.5857E-03,+2.623537E-06
+284.5107E-03,+2.620953E-06
+289.6447E-03,+2.626029E-06
+294.5364E-03,+2.621870E-06
+299.4389E-03,+2.630891E-06
+304.5753E-03,+2.628332E-06
+309.4634E-03,+2.633778E-06
+314.6253E-03,+2.629214E-06
+319.5176E-03,+2.644661E-06
+324.4208E-03,+2.637282E-06
+329.5632E-03,+2.638677E-06
+334.4550E-03,+2.639382E-06
+339.5895E-03,+2.639111E-06
+344.4988E-03,+2.639389E-06
+349.3963E-03,+2.638687E-06
+354.5360E-03,+2.636091E-06
+359.4428E-03,+2.637576E-06
+364.3408E-03,+2.636128E-06
+369.4761E-03,+2.640720E-06
+374.3661E-03,+2.642113E-06
+379.5137E-03,+2.639096E-06
+384.4268E-03,+2.641062E-06
+389.3090E-03,+2.643689E-06
+394.4614E-03,+2.642890E-06
+399.3710E-03,+2.638153E-06
+404.4957E-03,+2.643694E-06
+409.4041E-03,+2.638429E-06
+414.3085E-03,+2.638057E-06
+419.4339E-03,+2.639742E-06
+424.3414E-03,+2.637268E-06
+429.4674E-03,+2.639634E-06
+434.3778E-03,+2.636725E-06
+439.2839E-03,+2.639724E-06
+444.4218E-03,+2.639008E-06
+449.3034E-03,+2.638382E-06
+454.2069E-03,+2.636705E-06
+459.3515E-03,+2.633374E-06
+464.2532E-03,+2.633580E-06
+469.3833E-03,+2.638045E-06
+474.2877E-03,+2.634065E-06
+479.1890E-03,+2.632278E-06
+484.3276E-03,+2.639035E-06
+489.2395E-03,+2.631354E-06
+494.3781E-03,+2.631976E-06
+499.3435E-03,+2.631972E-06

MicroMag 2900/3900 Data File ends
