MicroMag 2900/3900 Data File (Series 0016.002)
Direct moment vs. field; Hysteresis loop

INSTRUMENT
Configuration                   VSM
Temperature control             None
Hardware version                0004
Software version                06/08/2012
Units of measure                Hybrid SI
Temperature in                  Kelvin

SAMPLE
Mass                            N/A
Volume                          N/A
Demagnetizing factor            N/A

SETTINGS
Field range                    +1.000000E+00
Field (command)                 N/A
Moment range                   +5.000000E-06
Averaging time                 +200.0000E-03
Temperature (command)           N/A
Tmprtr difference correction    No
Orientation                     0.000000E+00
Vibration amplitude             1.0
Calibration factor             +3.570920E+00
Operating frequency            +83.00000E+00
Sweep mode                      Discrete
Pause after sweep increment    +300.0000E-03

MEASUREMENT
Description                    "DQ15-33B1"
Field (measured)                N/A
Temperature (measured)          N/A
Averages (completed)            1
Measured on                     10/29/2016  15:08
Elapsed time                   +208.4902E+00

PROCESSING
Background subtraction          No
Delta-m processing              N/A
Demagnetizing factor            No
Normalization                   No
Normalization factor            N/A
Offset (field)                  No
Offset (moment)                 No
Pole saturation                 No
Slope correction                No

VIEWPORT
Left                           -500.0000E-03
Right                          +500.0000E-03
Bottom                         -5.000000E-06
Top                            +5.000000E-06
Show X-axis?                    Yes
Show Y-axis?                    Yes

CHARACTERIZATION
Initial slope                   N/A
Saturation                     +2.622299E-06
Remanence                      +124.8408E-09
Coercivity                     +4.099666E-03
S*                             +232.2557E-06

SCRIPT
Averages (target)               1
Averaging time                 +200.0000E-03
Demagnetize?                    No
Maximum field                  +500.0000E-03
Field increment                +5.000000E-03
Hysteresis loop?                Yes
Initial magnetization?          No
Pause                          +1.000000E+00
Saturate before measuring?      No
Number of segments              2
Number of data                  402

Segment   Averaging      Initial        Field         Final                    Final 
 Number      Time         Field       Increment       Field         Pause      Index 
             (s)           (T)           (T)           (T)           (s)     
0000001,+200.0000E-03,+500.0000E-03,+5.000000E-03,-500.0000E-03,+1.000000E+00,0000201
0000002,+200.0000E-03,-500.0000E-03,+5.000000E-03,+500.0000E-03,+1.000000E+00,0000402

                           
    Field         Moment   
     (T)          (Am²)    
+499.0411E-03,+2.627303E-06
+494.4459E-03,+2.621636E-06
+489.4023E-03,+2.622561E-06
+484.5050E-03,+2.626304E-06
+479.3814E-03,+2.626161E-06
+474.4709E-03,+2.624769E-06
+469.5650E-03,+2.625753E-06
+464.4324E-03,+2.627357E-06
+459.5212E-03,+2.626524E-06
+454.3828E-03,+2.628173E-06
+449.4812E-03,+2.625908E-06
+444.5901E-03,+2.627233E-06
+439.4422E-03,+2.625288E-06
+434.5446E-03,+2.637679E-06
+429.6371E-03,+2.628935E-06
+424.5002E-03,+2.629982E-06
+419.5898E-03,+2.631998E-06
+414.4646E-03,+2.629753E-06
+409.5500E-03,+2.633516E-06
+404.6462E-03,+2.632057E-06
+399.5202E-03,+2.631991E-06
+394.6086E-03,+2.630353E-06
+389.4534E-03,+2.626888E-06
+384.5683E-03,+2.628741E-06
+379.6630E-03,+2.627815E-06
+374.5156E-03,+2.628901E-06
+369.6204E-03,+2.629068E-06
+364.4854E-03,+2.631185E-06
+359.5698E-03,+2.629510E-06
+354.6720E-03,+2.624379E-06
+349.5382E-03,+2.628027E-06
+344.6303E-03,+2.632957E-06
+339.7282E-03,+2.627425E-06
+334.5853E-03,+2.625585E-06
+329.7005E-03,+2.621695E-06
+324.5417E-03,+2.623730E-06
+319.6496E-03,+2.619797E-06
+314.7546E-03,+2.622982E-06
+309.6012E-03,+2.620460E-06
+304.7093E-03,+2.620051E-06
+299.5666E-03,+2.616998E-06
+294.6531E-03,+2.615213E-06
+289.7725E-03,+2.616242E-06
+284.6292E-03,+2.616070E-06
+279.7080E-03,+2.610259E-06
+274.5748E-03,+2.606477E-06
+269.6696E-03,+2.611280E-06
+264.7673E-03,+2.608956E-06
+259.6364E-03,+2.604384E-06
+254.7317E-03,+2.601114E-06
+249.8365E-03,+2.601999E-06
+244.6891E-03,+2.593060E-06
+239.7991E-03,+2.591064E-06
+234.6381E-03,+2.590252E-06
+229.7484E-03,+2.585981E-06
+224.8459E-03,+2.579213E-06
+219.6993E-03,+2.574540E-06
+214.7916E-03,+2.564807E-06
+209.6570E-03,+2.557839E-06
+204.7564E-03,+2.560524E-06
+199.8541E-03,+2.550171E-06
+194.7308E-03,+2.538211E-06
+189.8188E-03,+2.530098E-06
+184.6690E-03,+2.518588E-06
+179.7806E-03,+2.517570E-06
+174.8654E-03,+2.504313E-06
+169.7250E-03,+2.485293E-06
+164.8348E-03,+2.471055E-06
+159.6958E-03,+2.456662E-06
+154.7779E-03,+2.441199E-06
+149.8759E-03,+2.426592E-06
+144.7347E-03,+2.405749E-06
+139.8412E-03,+2.377358E-06
+134.9436E-03,+2.357395E-06
+129.8068E-03,+2.323386E-06
+124.9030E-03,+2.294065E-06
+119.7671E-03,+2.259635E-06
+114.8612E-03,+2.218207E-06
+109.9692E-03,+2.179534E-06
+104.8084E-03,+2.135768E-06
+99.91772E-03,+2.089421E-06
+94.77960E-03,+2.039005E-06
+89.86430E-03,+1.976732E-06
+84.97903E-03,+1.912389E-06
+79.83936E-03,+1.847631E-06
+74.92202E-03,+1.773622E-06
+69.79310E-03,+1.695834E-06
+64.88901E-03,+1.625888E-06
+59.98009E-03,+1.535434E-06
+54.84109E-03,+1.453325E-06
+49.93919E-03,+1.357138E-06
+45.04248E-03,+1.256426E-06
+39.90167E-03,+1.147662E-06
+35.01112E-03,+1.039622E-06
+29.85241E-03,+920.8093E-09
+24.96309E-03,+810.1061E-09
+20.05386E-03,+678.1105E-09
+14.91757E-03,+553.5748E-09
+10.02951E-03,+412.2601E-09
+4.890879E-03,+272.6517E-09
-14.36413E-06,+132.8171E-09
-4.894847E-03,-27.35006E-09
-10.02685E-03,-177.9342E-09
-14.92562E-03,-316.3992E-09
-20.07309E-03,-469.1289E-09
-24.96757E-03,-611.9691E-09
-29.87379E-03,-749.6909E-09
-35.02757E-03,-892.8924E-09
-39.92627E-03,-1.011585E-06
-45.06657E-03,-1.137332E-06
-49.95156E-03,-1.250752E-06
-54.85913E-03,-1.362773E-06
-59.99906E-03,-1.465516E-06
-64.90407E-03,-1.566635E-06
-69.79881E-03,-1.643924E-06
-74.93439E-03,-1.724918E-06
-79.84716E-03,-1.801853E-06
-84.98459E-03,-1.878363E-06
-89.87351E-03,-1.947323E-06
-94.78804E-03,-1.997351E-06
-99.93986E-03,-2.061047E-06
-104.8328E-03,-2.110337E-06
-109.9740E-03,-2.157513E-06
-114.8674E-03,-2.209735E-06
-119.7575E-03,-2.245032E-06
-124.9024E-03,-2.291196E-06
-129.8166E-03,-2.319112E-06
-134.9400E-03,-2.350823E-06
-139.8396E-03,-2.373116E-06
-144.7486E-03,-2.387106E-06
-149.8951E-03,-2.412889E-06
-154.7787E-03,-2.423966E-06
-159.7010E-03,-2.452652E-06
-164.8311E-03,-2.465844E-06
-169.7229E-03,-2.483601E-06
-174.8888E-03,-2.491268E-06
-179.7787E-03,-2.510464E-06
-184.6830E-03,-2.521617E-06
-189.8323E-03,-2.522343E-06
-194.7127E-03,-2.543249E-06
-199.8458E-03,-2.547258E-06
-204.7682E-03,-2.541498E-06
-209.6595E-03,-2.557402E-06
-214.7905E-03,-2.569064E-06
-219.7066E-03,-2.568724E-06
-224.8479E-03,-2.575544E-06
-229.7336E-03,-2.582948E-06
-234.6538E-03,-2.584728E-06
-239.7915E-03,-2.580779E-06
-244.6911E-03,-2.583257E-06
-249.8252E-03,-2.599475E-06
-254.7247E-03,-2.601853E-06
-259.6230E-03,-2.600743E-06
-264.7642E-03,-2.609072E-06
-269.6688E-03,-2.607727E-06
-274.5626E-03,-2.601361E-06
-279.7131E-03,-2.610577E-06
-284.6160E-03,-2.608130E-06
-289.7597E-03,-2.614009E-06
-294.6377E-03,-2.609791E-06
-299.5480E-03,-2.622570E-06
-304.6878E-03,-2.607175E-06
-309.5878E-03,-2.611851E-06
-314.7329E-03,-2.614892E-06
-319.6202E-03,-2.618975E-06
-324.5329E-03,-2.615264E-06
-329.6745E-03,-2.624823E-06
-334.5761E-03,-2.621585E-06
-339.7048E-03,-2.625927E-06
-344.6069E-03,-2.618167E-06
-349.5064E-03,-2.620683E-06
-354.6576E-03,-2.629565E-06
-359.5548E-03,-2.620775E-06
-364.4627E-03,-2.627371E-06
-369.5969E-03,-2.629464E-06
-374.4893E-03,-2.620736E-06
-379.6390E-03,-2.623476E-06
-384.5431E-03,-2.629002E-06
-389.4383E-03,-2.623485E-06
-394.5950E-03,-2.630548E-06
-399.4824E-03,-2.624100E-06
-404.6095E-03,-2.620551E-06
-409.5336E-03,-2.628724E-06
-414.4233E-03,-2.625755E-06
-419.5541E-03,-2.628112E-06
-424.4585E-03,-2.626938E-06
-429.5961E-03,-2.624258E-06
-434.4950E-03,-2.627349E-06
-439.4017E-03,-2.624953E-06
-444.5452E-03,-2.627176E-06
-449.4397E-03,-2.623171E-06
-454.3304E-03,-2.622341E-06
-459.4809E-03,-2.623513E-06
-464.3854E-03,-2.622346E-06
-469.5119E-03,-2.630595E-06
-474.4381E-03,-2.619928E-06
-479.3276E-03,-2.619084E-06
-484.4610E-03,-2.622183E-06
-489.3731E-03,-2.621058E-06
-494.5126E-03,-2.624436E-06
-499.4739E-03,-2.621660E-06

-499.4785E-03,-2.618530E-06
-494.7068E-03,-2.619346E-06
-489.5919E-03,-2.623997E-06
-484.6728E-03,-2.622499E-06
-479.5398E-03,-2.620667E-06
-474.6339E-03,-2.625249E-06
-469.7161E-03,-2.626279E-06
-464.5712E-03,-2.627400E-06
-459.6685E-03,-2.621081E-06
-454.5166E-03,-2.626663E-06
-449.6072E-03,-2.626574E-06
-444.7232E-03,-2.624957E-06
-439.5736E-03,-2.624174E-06
-434.6662E-03,-2.627359E-06
-429.7612E-03,-2.626610E-06
-424.6243E-03,-2.627583E-06
-419.7159E-03,-2.627240E-06
-414.5863E-03,-2.623039E-06
-409.6809E-03,-2.625538E-06
-404.7576E-03,-2.628786E-06
-399.6323E-03,-2.626272E-06
-394.7397E-03,-2.624926E-06
-389.5855E-03,-2.626961E-06
-384.6865E-03,-2.625608E-06
-379.7844E-03,-2.622774E-06
-374.6268E-03,-2.625912E-06
-369.7390E-03,-2.629875E-06
-364.6063E-03,-2.623945E-06
-359.7011E-03,-2.623867E-06
-354.7966E-03,-2.621358E-06
-349.6583E-03,-2.626830E-06
-344.7391E-03,-2.623787E-06
-339.8481E-03,-2.621119E-06
-334.7161E-03,-2.621458E-06
-329.8059E-03,-2.623962E-06
-324.6561E-03,-2.620346E-06
-319.7633E-03,-2.618870E-06
-314.8722E-03,-2.618076E-06
-309.7248E-03,-2.621168E-06
-304.8244E-03,-2.616663E-06
-299.6839E-03,-2.613352E-06
-294.7688E-03,-2.613926E-06
-289.8857E-03,-2.615399E-06
-284.7353E-03,-2.611456E-06
-279.8215E-03,-2.608703E-06
-274.6791E-03,-2.609080E-06
-269.7837E-03,-2.605683E-06
-264.8844E-03,-2.599960E-06
-259.7509E-03,-2.599519E-06
-254.8442E-03,-2.597224E-06
-249.9415E-03,-2.595908E-06
-244.8053E-03,-2.587983E-06
-239.9083E-03,-2.583505E-06
-234.7646E-03,-2.582593E-06
-229.8559E-03,-2.574019E-06
-224.9634E-03,-2.572043E-06
-219.8226E-03,-2.570318E-06
-214.9089E-03,-2.561683E-06
-209.7694E-03,-2.564218E-06
-204.8768E-03,-2.553668E-06
-199.9641E-03,-2.544305E-06
-194.8264E-03,-2.539962E-06
-189.9371E-03,-2.537731E-06
-184.7875E-03,-2.517348E-06
-179.9052E-03,-2.505390E-06
-174.9925E-03,-2.496798E-06
-169.8421E-03,-2.488187E-06
-164.9425E-03,-2.469512E-06
-159.8075E-03,-2.457097E-06
-154.8935E-03,-2.442267E-06
-149.9910E-03,-2.416580E-06
-144.8596E-03,-2.398131E-06
-139.9476E-03,-2.374086E-06
-135.0416E-03,-2.345527E-06
-129.9101E-03,-2.326022E-06
-125.0026E-03,-2.292716E-06
-119.8636E-03,-2.258513E-06
-114.9691E-03,-2.217926E-06
-110.0800E-03,-2.179887E-06
-104.9354E-03,-2.131057E-06
-100.0311E-03,-2.079763E-06
-94.88609E-03,-2.032256E-06
-89.97031E-03,-1.970842E-06
-85.08723E-03,-1.916728E-06
-79.94455E-03,-1.853392E-06
-75.03857E-03,-1.780508E-06
-69.89273E-03,-1.694406E-06
-65.00312E-03,-1.619958E-06
-60.09997E-03,-1.539161E-06
-54.95726E-03,-1.438322E-06
-50.05125E-03,-1.349702E-06
-45.15337E-03,-1.244738E-06
-40.01549E-03,-1.145395E-06
-35.12874E-03,-1.033264E-06
-29.97266E-03,-925.8394E-09
-25.06749E-03,-789.1119E-09
-20.16746E-03,-663.3524E-09
-15.01613E-03,-538.9035E-09
-10.12454E-03,-413.9310E-09
-4.987227E-03,-266.6871E-09
-116.1223E-06,-119.7231E-09
+4.786890E-03,+18.26568E-09
+9.927229E-03,+171.3507E-09
+14.81588E-03,+328.6094E-09
+19.95269E-03,+487.7060E-09
+24.86665E-03,+619.4533E-09
+29.74921E-03,+757.7974E-09
+34.90780E-03,+908.0389E-09
+39.81262E-03,+1.016733E-06
+44.94342E-03,+1.152959E-06
+49.84806E-03,+1.260825E-06
+54.74212E-03,+1.365227E-06
+59.88491E-03,+1.475623E-06
+64.79160E-03,+1.574645E-06
+69.68852E-03,+1.658629E-06
+74.83374E-03,+1.728402E-06
+79.74338E-03,+1.810832E-06
+84.87296E-03,+1.896915E-06
+89.76456E-03,+1.948763E-06
+94.67995E-03,+2.006847E-06
+99.81243E-03,+2.065078E-06
+104.7066E-03,+2.117426E-06
+109.8626E-03,+2.172741E-06
+114.7729E-03,+2.194806E-06
+119.6548E-03,+2.252191E-06
+124.8012E-03,+2.284867E-06
+129.7038E-03,+2.323139E-06
+134.8322E-03,+2.358918E-06
+139.7327E-03,+2.377847E-06
+144.6333E-03,+2.396675E-06
+149.7846E-03,+2.411569E-06
+154.6754E-03,+2.436484E-06
+159.5944E-03,+2.454772E-06
+164.7199E-03,+2.486228E-06
+169.6171E-03,+2.477084E-06
+174.7670E-03,+2.506006E-06
+179.6720E-03,+2.515384E-06
+184.5606E-03,+2.510061E-06
+189.7020E-03,+2.534246E-06
+194.6103E-03,+2.543261E-06
+199.7411E-03,+2.541808E-06
+204.6521E-03,+2.555805E-06
+209.5439E-03,+2.564193E-06
+214.6885E-03,+2.559636E-06
+219.5946E-03,+2.568469E-06
+224.7368E-03,+2.586817E-06
+229.6270E-03,+2.581524E-06
+234.5200E-03,+2.592886E-06
+239.6747E-03,+2.585416E-06
+244.5770E-03,+2.596890E-06
+249.7123E-03,+2.605014E-06
+254.6163E-03,+2.597924E-06
+259.5124E-03,+2.597572E-06
+264.6507E-03,+2.601902E-06
+269.5557E-03,+2.607585E-06
+274.4493E-03,+2.608587E-06
+279.5839E-03,+2.609560E-06
+284.5176E-03,+2.610315E-06
+289.6473E-03,+2.618157E-06
+294.5344E-03,+2.618789E-06
+299.4435E-03,+2.625584E-06
+304.5850E-03,+2.622314E-06
+309.4788E-03,+2.617230E-06
+314.6212E-03,+2.622531E-06
+319.5172E-03,+2.626069E-06
+324.4226E-03,+2.616845E-06
+329.5701E-03,+2.626098E-06
+334.4594E-03,+2.623945E-06
+339.5898E-03,+2.629207E-06
+344.4916E-03,+2.627389E-06
+349.4065E-03,+2.627347E-06
+354.5376E-03,+2.627720E-06
+359.4451E-03,+2.621559E-06
+364.3483E-03,+2.627735E-06
+369.4887E-03,+2.629241E-06
+374.3813E-03,+2.631286E-06
+379.5248E-03,+2.626277E-06
+384.4272E-03,+2.628004E-06
+389.3050E-03,+2.626497E-06
+394.4643E-03,+2.628026E-06
+399.3671E-03,+2.628040E-06
+404.4976E-03,+2.625019E-06
+409.4000E-03,+2.629514E-06
+414.3095E-03,+2.633481E-06
+419.4485E-03,+2.630951E-06
+424.3487E-03,+2.626726E-06
+429.4803E-03,+2.630190E-06
+434.3850E-03,+2.625944E-06
+439.2965E-03,+2.631476E-06
+444.4323E-03,+2.627547E-06
+449.3130E-03,+2.625625E-06
+454.2149E-03,+2.631359E-06
+459.3601E-03,+2.623303E-06
+464.2498E-03,+2.626042E-06
+469.3967E-03,+2.627894E-06
+474.2982E-03,+2.627155E-06
+479.1929E-03,+2.627214E-06
+484.3335E-03,+2.626594E-06
+489.2561E-03,+2.628663E-06
+494.3908E-03,+2.625794E-06
+499.3509E-03,+2.625083E-06

MicroMag 2900/3900 Data File ends
