MicroMag 2900/3900 Data File (Series 0016.002)
Direct moment vs. field; Hysteresis loop

INSTRUMENT
Configuration                   VSM
Temperature control             None
Hardware version                0004
Software version                06/08/2012
Units of measure                Hybrid SI
Temperature in                  Kelvin

SAMPLE
Mass                            N/A
Volume                          N/A
Demagnetizing factor            N/A

SETTINGS
Field range                    +1.000000E+00
Field (command)                 N/A
Moment range                   +5.000000E-06
Averaging time                 +200.0000E-03
Temperature (command)           N/A
Tmprtr difference correction    No
Orientation                     0.000000E+00
Vibration amplitude             1.0
Calibration factor             +3.570920E+00
Operating frequency            +83.00000E+00
Sweep mode                      Discrete
Pause after sweep increment    +300.0000E-03

MEASUREMENT
Description                    "DQ15-33B1"
Field (measured)                N/A
Temperature (measured)          N/A
Averages (completed)            1
Measured on                     10/29/2016  16:25
Elapsed time                   +206.9704E+00

PROCESSING
Background subtraction          No
Delta-m processing              N/A
Demagnetizing factor            No
Normalization                   No
Normalization factor            N/A
Offset (field)                  No
Offset (moment)                 No
Pole saturation                 No
Slope correction                No

VIEWPORT
Left                           -500.0000E-03
Right                          +500.0000E-03
Bottom                         -5.000000E-06
Top                            +5.000000E-06
Show X-axis?                    Yes
Show Y-axis?                    Yes

CHARACTERIZATION
Initial slope                   N/A
Saturation                     +2.639390E-06
Remanence                      +126.7867E-09
Coercivity                     +4.212183E-03
S*                             +116.6516E-06

SCRIPT
Averages (target)               1
Averaging time                 +200.0000E-03
Demagnetize?                    No
Maximum field                  +500.0000E-03
Field increment                +5.000000E-03
Hysteresis loop?                Yes
Initial magnetization?          No
Pause                          +1.000000E+00
Saturate before measuring?      No
Number of segments              2
Number of data                  402

Segment   Averaging      Initial        Field         Final                    Final 
 Number      Time         Field       Increment       Field         Pause      Index 
             (s)           (T)           (T)           (T)           (s)     
0000001,+200.0000E-03,+500.0000E-03,+5.000000E-03,-500.0000E-03,+1.000000E+00,0000201
0000002,+200.0000E-03,-500.0000E-03,+5.000000E-03,+500.0000E-03,+1.000000E+00,0000402

                           
    Field         Moment   
     (T)          (Am²)    
+499.3436E-03,+2.637003E-06
+494.5701E-03,+2.639139E-06
+489.4778E-03,+2.646487E-06
+484.5397E-03,+2.642823E-06
+479.4016E-03,+2.643526E-06
+474.4960E-03,+2.645877E-06
+469.5840E-03,+2.646722E-06
+464.4485E-03,+2.645482E-06
+459.5473E-03,+2.647049E-06
+454.4042E-03,+2.647276E-06
+449.4925E-03,+2.650834E-06
+444.6041E-03,+2.648824E-06
+439.4709E-03,+2.647681E-06
+434.5471E-03,+2.648681E-06
+429.6388E-03,+2.651205E-06
+424.5020E-03,+2.650229E-06
+419.6119E-03,+2.650253E-06
+414.4749E-03,+2.651524E-06
+409.5545E-03,+2.648988E-06
+404.6584E-03,+2.650690E-06
+399.5224E-03,+2.649784E-06
+394.6125E-03,+2.652688E-06
+389.4562E-03,+2.645418E-06
+384.5778E-03,+2.644661E-06
+379.6665E-03,+2.647588E-06
+374.5169E-03,+2.645708E-06
+369.6227E-03,+2.652788E-06
+364.4870E-03,+2.648645E-06
+359.5832E-03,+2.648824E-06
+354.6649E-03,+2.647140E-06
+349.5271E-03,+2.646525E-06
+344.6295E-03,+2.646329E-06
+339.7236E-03,+2.645079E-06
+334.5941E-03,+2.644404E-06
+329.7016E-03,+2.644207E-06
+324.5459E-03,+2.643803E-06
+319.6547E-03,+2.641412E-06
+314.7548E-03,+2.643957E-06
+309.6001E-03,+2.639594E-06
+304.7094E-03,+2.639494E-06
+299.5673E-03,+2.636192E-06
+294.6585E-03,+2.632780E-06
+289.7709E-03,+2.635031E-06
+284.6428E-03,+2.629968E-06
+279.7073E-03,+2.627813E-06
+274.5661E-03,+2.626739E-06
+269.6689E-03,+2.628902E-06
+264.7712E-03,+2.626071E-06
+259.6277E-03,+2.625297E-06
+254.7385E-03,+2.620222E-06
+249.8374E-03,+2.615172E-06
+244.7006E-03,+2.612427E-06
+239.7931E-03,+2.611908E-06
+234.6383E-03,+2.606834E-06
+229.7478E-03,+2.600577E-06
+224.8467E-03,+2.594370E-06
+219.7127E-03,+2.592318E-06
+214.7961E-03,+2.580001E-06
+209.6743E-03,+2.580911E-06
+204.7586E-03,+2.576380E-06
+199.8511E-03,+2.566972E-06
+194.7238E-03,+2.555701E-06
+189.8234E-03,+2.549335E-06
+184.6656E-03,+2.538897E-06
+179.7911E-03,+2.532421E-06
+174.8892E-03,+2.516724E-06
+169.7265E-03,+2.507151E-06
+164.8314E-03,+2.493854E-06
+159.6971E-03,+2.478371E-06
+154.7826E-03,+2.458162E-06
+149.8838E-03,+2.441191E-06
+144.7554E-03,+2.415157E-06
+139.8377E-03,+2.392389E-06
+134.9470E-03,+2.372341E-06
+129.8109E-03,+2.340728E-06
+124.9060E-03,+2.311955E-06
+119.7649E-03,+2.276558E-06
+114.8682E-03,+2.229305E-06
+109.9677E-03,+2.197621E-06
+104.8213E-03,+2.148962E-06
+99.92599E-03,+2.112301E-06
+94.78903E-03,+2.050565E-06
+89.86827E-03,+1.992016E-06
+84.98020E-03,+1.925903E-06
+79.84683E-03,+1.867670E-06
+74.92413E-03,+1.793012E-06
+69.79311E-03,+1.721445E-06
+64.89708E-03,+1.633035E-06
+59.99353E-03,+1.547500E-06
+54.85128E-03,+1.470141E-06
+49.94738E-03,+1.365842E-06
+45.04821E-03,+1.261949E-06
+39.91787E-03,+1.156055E-06
+35.01502E-03,+1.050685E-06
+29.84693E-03,+931.0986E-09
+24.96611E-03,+809.8046E-09
+20.06571E-03,+688.6186E-09
+14.91354E-03,+553.7985E-09
+10.03631E-03,+418.1013E-09
+4.897208E-03,+264.9792E-09
-9.104496E-06,+132.6139E-09
-4.878086E-03,-15.32104E-09
-10.01823E-03,-164.0496E-09
-14.91360E-03,-315.9834E-09
-20.06881E-03,-475.1353E-09
-24.96389E-03,-626.5333E-09
-29.86241E-03,-761.3913E-09
-35.02978E-03,-909.1139E-09
-39.91335E-03,-1.029875E-06
-45.05411E-03,-1.146963E-06
-49.95234E-03,-1.267901E-06
-54.85573E-03,-1.367956E-06
-59.99035E-03,-1.471627E-06
-64.89026E-03,-1.566603E-06
-69.79153E-03,-1.653413E-06
-74.92299E-03,-1.744945E-06
-79.83503E-03,-1.822454E-06
-84.97348E-03,-1.908330E-06
-89.86661E-03,-1.969439E-06
-94.78503E-03,-2.023572E-06
-99.90896E-03,-2.090962E-06
-104.8222E-03,-2.127363E-06
-109.9632E-03,-2.169307E-06
-114.8657E-03,-2.219190E-06
-119.7534E-03,-2.256101E-06
-124.8985E-03,-2.296044E-06
-129.7989E-03,-2.321095E-06
-134.9268E-03,-2.354207E-06
-139.8299E-03,-2.386603E-06
-144.7417E-03,-2.403001E-06
-149.8679E-03,-2.439935E-06
-154.7739E-03,-2.462835E-06
-159.6899E-03,-2.471051E-06
-164.8265E-03,-2.487756E-06
-169.7123E-03,-2.502419E-06
-174.8730E-03,-2.516382E-06
-179.7699E-03,-2.529083E-06
-184.6709E-03,-2.535983E-06
-189.8087E-03,-2.538528E-06
-194.7028E-03,-2.550430E-06
-199.8396E-03,-2.560692E-06
-204.7563E-03,-2.574591E-06
-209.6468E-03,-2.577566E-06
-214.7799E-03,-2.570144E-06
-219.6904E-03,-2.592102E-06
-224.8383E-03,-2.594230E-06
-229.7288E-03,-2.592754E-06
-234.6389E-03,-2.603236E-06
-239.7804E-03,-2.610023E-06
-244.6754E-03,-2.605329E-06
-249.8014E-03,-2.611464E-06
-254.7056E-03,-2.626030E-06
-259.6200E-03,-2.620015E-06
-264.7556E-03,-2.625402E-06
-269.6547E-03,-2.616974E-06
-274.5509E-03,-2.628589E-06
-279.6843E-03,-2.628743E-06
-284.6006E-03,-2.630442E-06
-289.7393E-03,-2.634240E-06
-294.6194E-03,-2.632298E-06
-299.5401E-03,-2.626619E-06
-304.6699E-03,-2.628672E-06
-309.5737E-03,-2.631887E-06
-314.7277E-03,-2.641150E-06
-319.6187E-03,-2.637314E-06
-324.5053E-03,-2.636034E-06
-329.6614E-03,-2.640215E-06
-334.5687E-03,-2.642564E-06
-339.6889E-03,-2.641567E-06
-344.5900E-03,-2.642817E-06
-349.5020E-03,-2.643589E-06
-354.6334E-03,-2.644643E-06
-359.5433E-03,-2.647967E-06
-364.4437E-03,-2.642908E-06
-369.5779E-03,-2.647168E-06
-374.4696E-03,-2.645609E-06
-379.6327E-03,-2.651003E-06
-384.5143E-03,-2.647652E-06
-389.4231E-03,-2.646444E-06
-394.5756E-03,-2.644819E-06
-399.4610E-03,-2.646994E-06
-404.5993E-03,-2.644293E-06
-409.5075E-03,-2.647267E-06
-414.4085E-03,-2.646164E-06
-419.5356E-03,-2.645431E-06
-424.4352E-03,-2.641908E-06
-429.5749E-03,-2.644914E-06
-434.4745E-03,-2.644304E-06
-439.3848E-03,-2.644889E-06
-444.5345E-03,-2.644311E-06
-449.4224E-03,-2.648362E-06
-454.3148E-03,-2.638504E-06
-459.4648E-03,-2.647156E-06
-464.3589E-03,-2.644576E-06
-469.4948E-03,-2.644217E-06
-474.4177E-03,-2.641162E-06
-479.3063E-03,-2.641193E-06
-484.4347E-03,-2.641353E-06
-489.3585E-03,-2.639284E-06
-494.4889E-03,-2.641794E-06
-499.4520E-03,-2.638466E-06

-499.4570E-03,-2.639950E-06
-494.6874E-03,-2.638295E-06
-489.5785E-03,-2.636571E-06
-484.6669E-03,-2.645048E-06
-479.5332E-03,-2.641596E-06
-474.6206E-03,-2.642191E-06
-469.6977E-03,-2.640672E-06
-464.5629E-03,-2.637319E-06
-459.6519E-03,-2.642333E-06
-454.5074E-03,-2.643776E-06
-449.6031E-03,-2.641658E-06
-444.7061E-03,-2.647315E-06
-439.5600E-03,-2.645223E-06
-434.6502E-03,-2.643654E-06
-429.7502E-03,-2.646064E-06
-424.6124E-03,-2.645683E-06
-419.7104E-03,-2.648048E-06
-414.5704E-03,-2.645613E-06
-409.6723E-03,-2.647455E-06
-404.7551E-03,-2.646803E-06
-399.6229E-03,-2.644658E-06
-394.7318E-03,-2.648042E-06
-389.5856E-03,-2.645865E-06
-384.6793E-03,-2.643288E-06
-379.7824E-03,-2.642780E-06
-374.6205E-03,-2.639485E-06
-369.7342E-03,-2.644241E-06
-364.5895E-03,-2.646001E-06
-359.6865E-03,-2.645849E-06
-354.7820E-03,-2.647499E-06
-349.6442E-03,-2.645778E-06
-344.7307E-03,-2.640830E-06
-339.8323E-03,-2.641832E-06
-334.7123E-03,-2.640780E-06
-329.8008E-03,-2.642236E-06
-324.6471E-03,-2.638453E-06
-319.7487E-03,-2.636442E-06
-314.8608E-03,-2.641216E-06
-309.7168E-03,-2.635969E-06
-304.8114E-03,-2.633846E-06
-299.6719E-03,-2.633913E-06
-294.7608E-03,-2.636973E-06
-289.8721E-03,-2.631045E-06
-284.7349E-03,-2.629389E-06
-279.8119E-03,-2.627000E-06
-274.6784E-03,-2.625654E-06
-269.7780E-03,-2.628194E-06
-264.8779E-03,-2.623111E-06
-259.7415E-03,-2.622373E-06
-254.8300E-03,-2.615693E-06
-249.9317E-03,-2.615229E-06
-244.7994E-03,-2.607889E-06
-239.9050E-03,-2.609713E-06
-234.7551E-03,-2.605467E-06
-229.8470E-03,-2.599112E-06
-224.9552E-03,-2.593819E-06
-219.8160E-03,-2.592561E-06
-214.9127E-03,-2.589632E-06
-209.7669E-03,-2.573427E-06
-204.8680E-03,-2.568436E-06
-199.9505E-03,-2.563680E-06
-194.8213E-03,-2.555011E-06
-189.9336E-03,-2.549689E-06
-184.7888E-03,-2.534179E-06
-179.8908E-03,-2.523146E-06
-174.9887E-03,-2.509605E-06
-169.8299E-03,-2.504964E-06
-164.9378E-03,-2.494727E-06
-159.8062E-03,-2.472737E-06
-154.8828E-03,-2.456126E-06
-149.9933E-03,-2.438913E-06
-144.8526E-03,-2.414529E-06
-139.9402E-03,-2.387941E-06
-135.0425E-03,-2.361093E-06
-129.9133E-03,-2.339596E-06
-125.0058E-03,-2.309726E-06
-119.8514E-03,-2.273652E-06
-114.9745E-03,-2.235624E-06
-110.0691E-03,-2.196937E-06
-104.9284E-03,-2.142649E-06
-100.0279E-03,-2.099259E-06
-94.88887E-03,-2.036996E-06
-89.96607E-03,-1.990851E-06
-85.08123E-03,-1.923167E-06
-79.94265E-03,-1.858307E-06
-75.03485E-03,-1.789295E-06
-69.89404E-03,-1.713882E-06
-64.99595E-03,-1.629801E-06
-60.10127E-03,-1.551245E-06
-54.95631E-03,-1.454900E-06
-50.06199E-03,-1.357642E-06
-45.14989E-03,-1.258974E-06
-40.02192E-03,-1.154760E-06
-35.12651E-03,-1.039235E-06
-29.97595E-03,-926.5664E-09
-25.06863E-03,-805.3690E-09
-20.16778E-03,-681.9023E-09
-15.01806E-03,-540.4276E-09
-10.12286E-03,-406.8194E-09
-4.991972E-03,-263.6221E-09
-119.5696E-06,-124.2773E-09
+4.793616E-03,+22.14507E-09
+9.935933E-03,+190.7578E-09
+14.81004E-03,+324.3261E-09
+19.95668E-03,+484.1191E-09
+24.86456E-03,+633.3688E-09
+29.74450E-03,+761.4547E-09
+34.90719E-03,+907.5464E-09
+39.81058E-03,+1.032014E-06
+44.94563E-03,+1.153937E-06
+49.84075E-03,+1.266722E-06
+54.74201E-03,+1.384327E-06
+59.88114E-03,+1.493269E-06
+64.79100E-03,+1.579679E-06
+69.68640E-03,+1.660105E-06
+74.81741E-03,+1.741119E-06
+79.74013E-03,+1.822071E-06
+84.87755E-03,+1.907338E-06
+89.77022E-03,+1.979439E-06
+94.68751E-03,+2.023858E-06
+99.81548E-03,+2.088798E-06
+104.7086E-03,+2.142506E-06
+109.8570E-03,+2.193547E-06
+114.7561E-03,+2.224670E-06
+119.6556E-03,+2.264846E-06
+124.7989E-03,+2.299685E-06
+129.7001E-03,+2.340374E-06
+134.8387E-03,+2.369830E-06
+139.7306E-03,+2.390363E-06
+144.6364E-03,+2.400883E-06
+149.7644E-03,+2.434161E-06
+154.6699E-03,+2.464445E-06
+159.5795E-03,+2.476228E-06
+164.7197E-03,+2.487831E-06
+169.6180E-03,+2.515357E-06
+174.7703E-03,+2.518631E-06
+179.6670E-03,+2.525578E-06
+184.5549E-03,+2.537033E-06
+189.7012E-03,+2.559901E-06
+194.6116E-03,+2.552426E-06
+199.7268E-03,+2.569930E-06
+204.6420E-03,+2.570187E-06
+209.5419E-03,+2.578133E-06
+214.6744E-03,+2.590172E-06
+219.5811E-03,+2.595837E-06
+224.7193E-03,+2.598943E-06
+229.6261E-03,+2.603495E-06
+234.5226E-03,+2.599175E-06
+239.6725E-03,+2.614735E-06
+244.5690E-03,+2.612516E-06
+249.7122E-03,+2.612052E-06
+254.6123E-03,+2.617955E-06
+259.5006E-03,+2.625903E-06
+264.6466E-03,+2.630473E-06
+269.5391E-03,+2.635591E-06
+274.4429E-03,+2.630719E-06
+279.5759E-03,+2.629135E-06
+284.5019E-03,+2.639040E-06
+289.6456E-03,+2.634034E-06
+294.5350E-03,+2.641035E-06
+299.4376E-03,+2.638667E-06
+304.5640E-03,+2.646850E-06
+309.4577E-03,+2.637854E-06
+314.6184E-03,+2.641320E-06
+319.5128E-03,+2.641000E-06
+324.4079E-03,+2.640685E-06
+329.5516E-03,+2.644648E-06
+334.4597E-03,+2.648884E-06
+339.5873E-03,+2.645728E-06
+344.4890E-03,+2.652489E-06
+349.3871E-03,+2.644774E-06
+354.5269E-03,+2.648228E-06
+359.4279E-03,+2.644394E-06
+364.3417E-03,+2.645749E-06
+369.4714E-03,+2.645304E-06
+374.3694E-03,+2.650446E-06
+379.5139E-03,+2.654418E-06
+384.4128E-03,+2.650376E-06
+389.2964E-03,+2.645594E-06
+394.4508E-03,+2.645214E-06
+399.3618E-03,+2.649508E-06
+404.4910E-03,+2.651150E-06
+409.3902E-03,+2.647573E-06
+414.3074E-03,+2.653501E-06
+419.4314E-03,+2.649614E-06
+424.3331E-03,+2.650851E-06
+429.4663E-03,+2.646651E-06
+434.3683E-03,+2.645267E-06
+439.2766E-03,+2.651800E-06
+444.4140E-03,+2.651302E-06
+449.2986E-03,+2.646180E-06
+454.2038E-03,+2.649017E-06
+459.3353E-03,+2.650981E-06
+464.2480E-03,+2.655230E-06
+469.3795E-03,+2.646365E-06
+474.2807E-03,+2.645828E-06
+479.1783E-03,+2.650381E-06
+484.3147E-03,+2.644068E-06
+489.2256E-03,+2.647001E-06
+494.3663E-03,+2.647411E-06
+499.3384E-03,+2.642320E-06

MicroMag 2900/3900 Data File ends
