MicroMag 2900/3900 Data File (Series 0016.002)
Direct moment vs. field; Hysteresis loop

INSTRUMENT
Configuration                   VSM
Temperature control             None
Hardware version                0004
Software version                06/08/2012
Units of measure                Hybrid SI
Temperature in                  Kelvin

SAMPLE
Mass                            N/A
Volume                          N/A
Demagnetizing factor            N/A

SETTINGS
Field range                    +1.000000E+00
Field (command)                 N/A
Moment range                   +5.000000E-06
Averaging time                 +100.0000E-03
Temperature (command)           N/A
Tmprtr difference correction    No
Orientation                     0.000000E+00
Vibration amplitude             1.0
Calibration factor             +3.570920E+00
Operating frequency            +83.00000E+00
Sweep mode                      Discrete
Pause after sweep increment    +300.0000E-03

MEASUREMENT
Description                    "DQ15-33B1"
Field (measured)                N/A
Temperature (measured)          N/A
Averages (completed)            1
Measured on                     10/29/2016  13:28
Elapsed time                   +166.8050E+00

PROCESSING
Background subtraction          No
Delta-m processing              N/A
Demagnetizing factor            No
Normalization                   No
Normalization factor            N/A
Offset (field)                  No
Offset (moment)                 No
Pole saturation                 No
Slope correction                No

VIEWPORT
Left                           -500.0000E-03
Right                          +500.0000E-03
Bottom                         -5.000000E-06
Top                            +5.000000E-06
Show X-axis?                    Yes
Show Y-axis?                    Yes

CHARACTERIZATION
Initial slope                   N/A
Saturation                     +2.604089E-06
Remanence                      +124.6162E-09
Coercivity                     +3.940402E-03
S*                             -32.79252E-09

SCRIPT
Averages (target)               1
Averaging time                 +100.0000E-03
Demagnetize?                    No
Maximum field                  +500.0000E-03
Field increment                +5.000000E-03
Hysteresis loop?                Yes
Initial magnetization?          No
Pause                          +1.000000E+00
Saturate before measuring?      No
Number of segments              2
Number of data                  402

Segment   Averaging      Initial        Field         Final                    Final 
 Number      Time         Field       Increment       Field         Pause      Index 
             (s)           (T)           (T)           (T)           (s)     
0000001,+100.0000E-03,+500.0000E-03,+5.000000E-03,-500.0000E-03,+1.000000E+00,0000201
0000002,+100.0000E-03,-500.0000E-03,+5.000000E-03,+500.0000E-03,+1.000000E+00,0000402

                           
    Field         Moment   
     (T)          (Am²)    
+499.3732E-03,+2.606612E-06
+494.6000E-03,+2.603925E-06
+489.5186E-03,+2.609463E-06
+484.6085E-03,+2.612454E-06
+479.4698E-03,+2.608387E-06
+474.5516E-03,+2.610594E-06
+469.6363E-03,+2.606450E-06
+464.5083E-03,+2.611601E-06
+459.6035E-03,+2.616269E-06
+454.4483E-03,+2.613054E-06
+449.5695E-03,+2.611071E-06
+444.6578E-03,+2.611469E-06
+439.5100E-03,+2.609797E-06
+434.6023E-03,+2.606181E-06
+429.7049E-03,+2.608948E-06
+424.5446E-03,+2.612075E-06
+419.6511E-03,+2.613563E-06
+414.5117E-03,+2.609996E-06
+409.6005E-03,+2.611352E-06
+404.6941E-03,+2.616772E-06
+399.5686E-03,+2.616716E-06
+394.6556E-03,+2.615471E-06
+389.5128E-03,+2.616792E-06
+384.6258E-03,+2.614174E-06
+379.7129E-03,+2.617539E-06
+374.5638E-03,+2.613305E-06
+369.6617E-03,+2.615455E-06
+364.5367E-03,+2.615723E-06
+359.6237E-03,+2.610550E-06
+354.7023E-03,+2.613642E-06
+349.5686E-03,+2.615476E-06
+344.6637E-03,+2.607233E-06
+339.7582E-03,+2.604848E-06
+334.6369E-03,+2.610137E-06
+329.7188E-03,+2.607042E-06
+324.5862E-03,+2.605091E-06
+319.6819E-03,+2.607016E-06
+314.7800E-03,+2.604127E-06
+309.6472E-03,+2.605931E-06
+304.7384E-03,+2.598468E-06
+299.6003E-03,+2.600289E-06
+294.6969E-03,+2.604572E-06
+289.8117E-03,+2.597383E-06
+284.6757E-03,+2.599974E-06
+279.7349E-03,+2.592212E-06
+274.5933E-03,+2.591343E-06
+269.7185E-03,+2.587743E-06
+264.7999E-03,+2.589799E-06
+259.6701E-03,+2.586268E-06
+254.7651E-03,+2.583271E-06
+249.8694E-03,+2.582207E-06
+244.7321E-03,+2.585223E-06
+239.8323E-03,+2.573395E-06
+234.6517E-03,+2.570788E-06
+229.7655E-03,+2.570097E-06
+224.8831E-03,+2.561057E-06
+219.7389E-03,+2.557620E-06
+214.8207E-03,+2.553760E-06
+209.6888E-03,+2.547131E-06
+204.7903E-03,+2.537559E-06
+199.8726E-03,+2.531442E-06
+194.7382E-03,+2.527855E-06
+189.8290E-03,+2.515613E-06
+184.6795E-03,+2.509138E-06
+179.8109E-03,+2.497267E-06
+174.9180E-03,+2.483669E-06
+169.7464E-03,+2.468822E-06
+164.8660E-03,+2.468229E-06
+159.7278E-03,+2.450839E-06
+154.8034E-03,+2.426852E-06
+149.9128E-03,+2.412233E-06
+144.7528E-03,+2.390019E-06
+139.8709E-03,+2.365608E-06
+134.9601E-03,+2.337821E-06
+129.8226E-03,+2.310407E-06
+124.8997E-03,+2.285209E-06
+119.8026E-03,+2.240010E-06
+114.8947E-03,+2.210328E-06
+109.9805E-03,+2.156472E-06
+104.8333E-03,+2.115403E-06
+99.94510E-03,+2.080622E-06
+94.79494E-03,+2.026449E-06
+89.88705E-03,+1.966552E-06
+84.96957E-03,+1.909860E-06
+79.86809E-03,+1.835413E-06
+74.94923E-03,+1.776050E-06
+69.83700E-03,+1.691984E-06
+64.90067E-03,+1.611817E-06
+60.01404E-03,+1.514985E-06
+54.87249E-03,+1.446005E-06
+49.96378E-03,+1.356700E-06
+45.05910E-03,+1.239847E-06
+39.92411E-03,+1.141181E-06
+35.02997E-03,+1.048728E-06
+29.87783E-03,+917.5557E-09
+24.96777E-03,+790.2702E-09
+20.08373E-03,+684.8081E-09
+14.92063E-03,+540.8957E-09
+10.04428E-03,+408.7570E-09
+4.908334E-03,+271.9314E-09
+3.528505E-06,+132.3120E-09
-4.879505E-03,-21.58231E-09
-10.00596E-03,-170.1361E-09
-14.89721E-03,-319.0197E-09
-20.06024E-03,-459.0108E-09
-24.95357E-03,-603.3976E-09
-29.85546E-03,-745.6219E-09
-35.02236E-03,-906.9433E-09
-39.89524E-03,-1.000625E-06
-45.04314E-03,-1.135500E-06
-49.93595E-03,-1.241306E-06
-54.82966E-03,-1.333477E-06
-59.97575E-03,-1.450179E-06
-64.88636E-03,-1.565015E-06
-69.77904E-03,-1.615303E-06
-74.91635E-03,-1.716908E-06
-79.82864E-03,-1.789411E-06
-84.96518E-03,-1.867605E-06
-89.86066E-03,-1.951597E-06
-94.76851E-03,-2.003391E-06
-99.90790E-03,-2.044976E-06
-104.8166E-03,-2.103851E-06
-109.9527E-03,-2.158950E-06
-114.8557E-03,-2.186202E-06
-119.7511E-03,-2.222163E-06
-124.8797E-03,-2.263523E-06
-129.7974E-03,-2.290083E-06
-134.9303E-03,-2.326784E-06
-139.8291E-03,-2.341777E-06
-144.7319E-03,-2.365985E-06
-149.8829E-03,-2.390947E-06
-154.7720E-03,-2.418377E-06
-159.6964E-03,-2.436423E-06
-164.8163E-03,-2.444604E-06
-169.7256E-03,-2.464382E-06
-174.8733E-03,-2.496084E-06
-179.7675E-03,-2.485075E-06
-184.6617E-03,-2.502192E-06
-189.8162E-03,-2.506238E-06
-194.6893E-03,-2.522734E-06
-199.8447E-03,-2.535557E-06
-204.7416E-03,-2.539973E-06
-209.6340E-03,-2.549165E-06
-214.7916E-03,-2.539287E-06
-219.6971E-03,-2.552608E-06
-224.8390E-03,-2.572965E-06
-229.7204E-03,-2.563044E-06
-234.6296E-03,-2.558669E-06
-239.7762E-03,-2.566761E-06
-244.6729E-03,-2.584492E-06
-249.8064E-03,-2.587512E-06
-254.7165E-03,-2.581701E-06
-259.6093E-03,-2.595503E-06
-264.7593E-03,-2.579845E-06
-269.6492E-03,-2.589921E-06
-274.5355E-03,-2.589801E-06
-279.6964E-03,-2.588665E-06
-284.6105E-03,-2.584756E-06
-289.7411E-03,-2.586307E-06
-294.6271E-03,-2.592473E-06
-299.5521E-03,-2.609671E-06
-304.6781E-03,-2.600136E-06
-309.5714E-03,-2.607480E-06
-314.7380E-03,-2.605492E-06
-319.6197E-03,-2.613530E-06
-324.5203E-03,-2.606335E-06
-329.6514E-03,-2.596266E-06
-334.5704E-03,-2.608341E-06
-339.7023E-03,-2.615567E-06
-344.5936E-03,-2.616280E-06
-349.5093E-03,-2.595904E-06
-354.6505E-03,-2.598726E-06
-359.5439E-03,-2.608485E-06
-364.4615E-03,-2.608206E-06
-369.5850E-03,-2.602387E-06
-374.4897E-03,-2.616453E-06
-379.6277E-03,-2.606794E-06
-384.5359E-03,-2.606024E-06
-389.4301E-03,-2.611333E-06
-394.5712E-03,-2.608613E-06
-399.4680E-03,-2.604572E-06
-404.6062E-03,-2.607555E-06
-409.5139E-03,-2.610481E-06
-414.4056E-03,-2.610850E-06
-419.5433E-03,-2.613852E-06
-424.4361E-03,-2.609447E-06
-429.5952E-03,-2.610575E-06
-434.4763E-03,-2.611363E-06
-439.3879E-03,-2.606011E-06
-444.5257E-03,-2.603285E-06
-449.4164E-03,-2.600957E-06
-454.3208E-03,-2.603676E-06
-459.4627E-03,-2.603439E-06
-464.3629E-03,-2.613073E-06
-469.5061E-03,-2.601630E-06
-474.4020E-03,-2.607443E-06
-479.2917E-03,-2.604021E-06
-484.4465E-03,-2.600676E-06
-489.3599E-03,-2.605914E-06
-494.5018E-03,-2.604600E-06
-499.4895E-03,-2.596461E-06

-499.4750E-03,-2.597978E-06
-494.7177E-03,-2.604332E-06
-489.6283E-03,-2.607340E-06
-484.7032E-03,-2.605239E-06
-479.5960E-03,-2.602955E-06
-474.6843E-03,-2.605143E-06
-469.7613E-03,-2.604508E-06
-464.6397E-03,-2.609748E-06
-459.7095E-03,-2.607349E-06
-454.5615E-03,-2.611591E-06
-449.6618E-03,-2.609153E-06
-444.7694E-03,-2.613912E-06
-439.5995E-03,-2.614055E-06
-434.7003E-03,-2.608814E-06
-429.7853E-03,-2.609715E-06
-424.6728E-03,-2.610471E-06
-419.7536E-03,-2.608414E-06
-414.6213E-03,-2.610176E-06
-409.7192E-03,-2.613871E-06
-404.7946E-03,-2.606924E-06
-399.6685E-03,-2.615484E-06
-394.7661E-03,-2.613760E-06
-389.6234E-03,-2.610452E-06
-384.7256E-03,-2.610289E-06
-379.8295E-03,-2.611785E-06
-374.6662E-03,-2.607876E-06
-369.7708E-03,-2.612407E-06
-364.6339E-03,-2.609450E-06
-359.7563E-03,-2.610402E-06
-354.8246E-03,-2.611611E-06
-349.6855E-03,-2.609639E-06
-344.8104E-03,-2.610446E-06
-339.8747E-03,-2.603509E-06
-334.7487E-03,-2.605738E-06
-329.8350E-03,-2.606568E-06
-324.6870E-03,-2.602061E-06
-319.7865E-03,-2.604544E-06
-314.9046E-03,-2.602829E-06
-309.7393E-03,-2.602267E-06
-304.8505E-03,-2.602131E-06
-299.7167E-03,-2.603233E-06
-294.7909E-03,-2.602039E-06
-289.9124E-03,-2.600772E-06
-284.7485E-03,-2.598671E-06
-279.8471E-03,-2.598037E-06
-274.7099E-03,-2.593771E-06
-269.8270E-03,-2.583809E-06
-264.9072E-03,-2.584067E-06
-259.7623E-03,-2.592941E-06
-254.8678E-03,-2.579623E-06
-249.9584E-03,-2.579798E-06
-244.8501E-03,-2.578033E-06
-239.9474E-03,-2.572317E-06
-234.7879E-03,-2.574665E-06
-229.8773E-03,-2.562407E-06
-224.9947E-03,-2.564219E-06
-219.8352E-03,-2.558810E-06
-214.9480E-03,-2.554758E-06
-209.8037E-03,-2.553238E-06
-204.8809E-03,-2.543823E-06
-199.9951E-03,-2.530139E-06
-194.8373E-03,-2.525448E-06
-189.9634E-03,-2.508119E-06
-184.8111E-03,-2.503960E-06
-179.9114E-03,-2.488978E-06
-175.0098E-03,-2.480757E-06
-169.8769E-03,-2.470832E-06
-164.9609E-03,-2.452855E-06
-159.8207E-03,-2.439241E-06
-154.9118E-03,-2.422224E-06
-149.9780E-03,-2.401964E-06
-144.8731E-03,-2.377281E-06
-139.9664E-03,-2.357138E-06
-135.0585E-03,-2.335735E-06
-129.9355E-03,-2.303976E-06
-125.0231E-03,-2.269393E-06
-119.8864E-03,-2.238770E-06
-114.9844E-03,-2.203009E-06
-110.0964E-03,-2.158797E-06
-104.9454E-03,-2.120655E-06
-100.0384E-03,-2.078057E-06
-94.88280E-03,-2.011813E-06
-89.98959E-03,-1.957425E-06
-85.10666E-03,-1.899952E-06
-79.94950E-03,-1.838434E-06
-75.02984E-03,-1.761177E-06
-69.90450E-03,-1.689658E-06
-65.00868E-03,-1.603064E-06
-60.10620E-03,-1.529077E-06
-54.98185E-03,-1.431967E-06
-50.06913E-03,-1.347712E-06
-45.15997E-03,-1.238613E-06
-40.03739E-03,-1.131322E-06
-35.14375E-03,-1.030473E-06
-29.97718E-03,-914.7786E-09
-25.07721E-03,-798.2169E-09
-20.17677E-03,-661.2542E-09
-15.03673E-03,-534.2804E-09
-10.13592E-03,-397.0131E-09
-5.001697E-03,-261.9184E-09
-129.8287E-06,-121.1535E-09
+4.786884E-03,+34.94923E-09
+9.927530E-03,+173.2187E-09
+14.80163E-03,+322.7504E-09
+19.94273E-03,+472.4424E-09
+24.85147E-03,+626.0490E-09
+29.76986E-03,+752.8312E-09
+34.89811E-03,+887.6552E-09
+39.79441E-03,+1.008655E-06
+44.92515E-03,+1.143764E-06
+49.83738E-03,+1.247190E-06
+54.73865E-03,+1.351110E-06
+59.87968E-03,+1.450243E-06
+64.79450E-03,+1.544970E-06
+69.71956E-03,+1.628244E-06
+74.80897E-03,+1.737385E-06
+79.73805E-03,+1.800433E-06
+84.87234E-03,+1.865828E-06
+89.75859E-03,+1.937168E-06
+94.66595E-03,+1.996005E-06
+99.80534E-03,+2.059302E-06
+104.7095E-03,+2.100985E-06
+109.8626E-03,+2.160765E-06
+114.7515E-03,+2.197404E-06
+119.6528E-03,+2.241614E-06
+124.7922E-03,+2.282401E-06
+129.6864E-03,+2.312913E-06
+134.8258E-03,+2.335569E-06
+139.7212E-03,+2.353769E-06
+144.6252E-03,+2.392000E-06
+149.7648E-03,+2.412135E-06
+154.6743E-03,+2.422824E-06
+159.5848E-03,+2.436235E-06
+164.7247E-03,+2.473206E-06
+169.5994E-03,+2.470063E-06
+174.7432E-03,+2.493535E-06
+179.6689E-03,+2.480009E-06
+184.5492E-03,+2.512162E-06
+189.6967E-03,+2.513777E-06
+194.6036E-03,+2.533000E-06
+199.7379E-03,+2.531679E-06
+204.6426E-03,+2.537865E-06
+209.5396E-03,+2.563962E-06
+214.6745E-03,+2.548293E-06
+219.5822E-03,+2.562003E-06
+224.7281E-03,+2.566846E-06
+229.6263E-03,+2.562462E-06
+234.5043E-03,+2.568821E-06
+239.6670E-03,+2.570693E-06
+244.5757E-03,+2.557010E-06
+249.7002E-03,+2.586030E-06
+254.6098E-03,+2.593995E-06
+259.4857E-03,+2.603280E-06
+264.6375E-03,+2.589913E-06
+269.5487E-03,+2.591808E-06
+274.4476E-03,+2.594418E-06
+279.5785E-03,+2.601032E-06
+284.5074E-03,+2.591295E-06
+289.6518E-03,+2.607747E-06
+294.5344E-03,+2.594057E-06
+299.4299E-03,+2.602250E-06
+304.5931E-03,+2.597912E-06
+309.4756E-03,+2.598383E-06
+314.5803E-03,+2.610243E-06
+319.5203E-03,+2.604136E-06
+324.3896E-03,+2.609597E-06
+329.5577E-03,+2.622373E-06
+334.4553E-03,+2.600396E-06
+339.5934E-03,+2.601106E-06
+344.4914E-03,+2.613653E-06
+349.3941E-03,+2.612298E-06
+354.5243E-03,+2.604462E-06
+359.4381E-03,+2.606757E-06
+364.3394E-03,+2.618826E-06
+369.4796E-03,+2.606221E-06
+374.3706E-03,+2.611257E-06
+379.5247E-03,+2.621714E-06
+384.4219E-03,+2.615773E-06
+389.3278E-03,+2.616079E-06
+394.4737E-03,+2.616131E-06
+399.3617E-03,+2.605515E-06
+404.4936E-03,+2.606010E-06
+409.3941E-03,+2.616164E-06
+414.3099E-03,+2.616266E-06
+419.4284E-03,+2.615839E-06
+424.3299E-03,+2.617982E-06
+429.4736E-03,+2.607768E-06
+434.3765E-03,+2.612525E-06
+439.2666E-03,+2.617350E-06
+444.4090E-03,+2.610051E-06
+449.3046E-03,+2.611923E-06
+454.2160E-03,+2.611263E-06
+459.3514E-03,+2.618083E-06
+464.2622E-03,+2.609231E-06
+469.3744E-03,+2.610815E-06
+474.2927E-03,+2.603309E-06
+479.1805E-03,+2.616744E-06
+484.3175E-03,+2.610113E-06
+489.2372E-03,+2.598226E-06
+494.3668E-03,+2.610522E-06
+499.3687E-03,+2.603735E-06

MicroMag 2900/3900 Data File ends
