MicroMag 2900/3900 Data File (Series 0016.002)
Direct moment vs. field; Hysteresis loop

INSTRUMENT
Configuration                   VSM
Temperature control             None
Hardware version                0004
Software version                06/08/2012
Units of measure                Hybrid SI
Temperature in                  Kelvin

SAMPLE
Mass                            N/A
Volume                          N/A
Demagnetizing factor            N/A

SETTINGS
Field range                    +1.000000E+00
Field (command)                 N/A
Moment range                   +5.000000E-06
Averaging time                 +200.0000E-03
Temperature (command)           N/A
Tmprtr difference correction    No
Orientation                     0.000000E+00
Vibration amplitude             1.0
Calibration factor             +3.570920E+00
Operating frequency            +83.00000E+00
Sweep mode                      Continuous
Pause after sweep increment    +300.0000E-03

MEASUREMENT
Description                    "DQ15-33B1"
Field (measured)                N/A
Temperature (measured)          N/A
Averages (completed)            1
Measured on                     10/29/2016  14:12
Elapsed time                   +84.27258E+00

PROCESSING
Background subtraction          No
Delta-m processing              N/A
Demagnetizing factor            No
Normalization                   No
Normalization factor            N/A
Offset (field)                  No
Offset (moment)                 No
Pole saturation                 No
Slope correction                No

VIEWPORT
Left                           -500.0000E-03
Right                          +500.0000E-03
Bottom                         -5.000000E-06
Top                            +5.000000E-06
Show X-axis?                    Yes
Show Y-axis?                    Yes

CHARACTERIZATION
Initial slope                   N/A
Saturation                     +2.607150E-06
Remanence                      +128.7333E-09
Coercivity                     +4.250048E-03
S*                             +5.379460E-09

SCRIPT
Averages (target)               1
Averaging time                 +200.0000E-03
Demagnetize?                    No
Maximum field                  +500.0000E-03
Field increment                +5.000000E-03
Hysteresis loop?                Yes
Initial magnetization?          No
Pause                          +1.000000E+00
Saturate before measuring?      No
Number of segments              2
Number of data                  402

Segment   Averaging      Initial        Field         Final                    Final 
 Number      Time         Field       Increment       Field         Pause      Index 
             (s)           (T)           (T)           (T)           (s)     
0000001,+200.0000E-03,+500.0000E-03,+5.000000E-03,-500.0000E-03,+1.000000E+00,0000201
0000002,+200.0000E-03,-500.0000E-03,+5.000000E-03,+500.0000E-03,+1.000000E+00,0000402

                           
    Field         Moment   
     (T)          (Am²)    
+499.3764E-03,+2.610692E-06
+494.6690E-03,+2.610213E-06
+489.7084E-03,+2.611180E-06
+484.7365E-03,+2.609123E-06
+479.7373E-03,+2.611624E-06
+474.7513E-03,+2.612828E-06
+469.7702E-03,+2.611455E-06
+464.7539E-03,+2.617764E-06
+459.7678E-03,+2.613167E-06
+454.7537E-03,+2.617812E-06
+449.7552E-03,+2.618856E-06
+444.7599E-03,+2.619935E-06
+439.7606E-03,+2.620131E-06
+434.7129E-03,+2.618140E-06
+429.7742E-03,+2.614383E-06
+424.7324E-03,+2.619954E-06
+419.7505E-03,+2.617885E-06
+414.7537E-03,+2.619501E-06
+409.7442E-03,+2.622881E-06
+404.7496E-03,+2.615135E-06
+399.7402E-03,+2.613940E-06
+394.7414E-03,+2.619376E-06
+389.7397E-03,+2.623983E-06
+384.7449E-03,+2.616733E-06
+379.7655E-03,+2.618520E-06
+374.7476E-03,+2.609126E-06
+369.7738E-03,+2.624302E-06
+364.7714E-03,+2.614393E-06
+359.7612E-03,+2.625080E-06
+354.7780E-03,+2.624561E-06
+349.7058E-03,+2.616868E-06
+344.7770E-03,+2.613789E-06
+339.7570E-03,+2.616052E-06
+334.7864E-03,+2.625040E-06
+329.7941E-03,+2.612886E-06
+324.8480E-03,+2.609574E-06
+319.7898E-03,+2.609877E-06
+314.7978E-03,+2.614449E-06
+309.8045E-03,+2.608697E-06
+304.8028E-03,+2.615614E-06
+299.8002E-03,+2.614091E-06
+294.8163E-03,+2.610145E-06
+289.8117E-03,+2.613621E-06
+284.8881E-03,+2.605849E-06
+279.8367E-03,+2.613230E-06
+274.8083E-03,+2.597480E-06
+269.8388E-03,+2.595525E-06
+264.7879E-03,+2.591778E-06
+259.8412E-03,+2.577412E-06
+254.8453E-03,+2.585257E-06
+249.8143E-03,+2.588584E-06
+244.8657E-03,+2.577460E-06
+239.8655E-03,+2.581292E-06
+234.8132E-03,+2.561277E-06
+229.8580E-03,+2.574646E-06
+224.8690E-03,+2.574034E-06
+219.8581E-03,+2.567070E-06
+214.9044E-03,+2.554488E-06
+209.9131E-03,+2.534908E-06
+204.8707E-03,+2.549898E-06
+199.8535E-03,+2.536008E-06
+194.9085E-03,+2.526333E-06
+189.8921E-03,+2.507349E-06
+184.8933E-03,+2.491174E-06
+179.8676E-03,+2.519105E-06
+174.9148E-03,+2.495467E-06
+169.9164E-03,+2.464049E-06
+164.9197E-03,+2.460493E-06
+159.8411E-03,+2.435876E-06
+154.9386E-03,+2.434976E-06
+149.8410E-03,+2.377271E-06
+144.9259E-03,+2.368101E-06
+139.9378E-03,+2.381561E-06
+134.9340E-03,+2.320601E-06
+129.9517E-03,+2.303623E-06
+125.0225E-03,+2.295882E-06
+119.9513E-03,+2.301472E-06
+114.9553E-03,+2.196949E-06
+109.9839E-03,+2.154908E-06
+104.9836E-03,+2.096808E-06
+99.98012E-03,+2.088095E-06
+95.01497E-03,+2.020036E-06
+89.98129E-03,+1.969568E-06
+84.98964E-03,+1.905615E-06
+80.00483E-03,+1.826533E-06
+75.00469E-03,+1.730893E-06
+69.99384E-03,+1.674897E-06
+64.99925E-03,+1.585526E-06
+60.66426E-03,+1.504123E-06
+55.16551E-03,+1.439325E-06
+50.02474E-03,+1.355083E-06
+45.00953E-03,+1.297228E-06
+40.03264E-03,+1.187859E-06
+35.06772E-03,+1.042976E-06
+30.04840E-03,+893.8680E-09
+25.03775E-03,+801.9681E-09
+20.07197E-03,+674.7660E-09
+15.05948E-03,+512.7099E-09
+10.06805E-03,+354.7060E-09
+5.098208E-03,+279.2833E-09
+105.9316E-06,+130.7753E-09
-4.881136E-03,-19.25169E-09
-9.852491E-03,-188.7307E-09
-14.85659E-03,-332.7548E-09
-19.86871E-03,-480.4508E-09
-24.91632E-03,-596.5514E-09
-29.79808E-03,-772.9786E-09
-34.85950E-03,-899.4280E-09
-39.85474E-03,-1.005424E-06
-44.83529E-03,-1.128876E-06
-49.67247E-03,-1.268865E-06
-54.82459E-03,-1.305475E-06
-59.81285E-03,-1.438275E-06
-64.81402E-03,-1.509404E-06
-69.80620E-03,-1.655251E-06
-74.79587E-03,-1.710581E-06
-79.79422E-03,-1.805125E-06
-84.76155E-03,-1.844972E-06
-89.82052E-03,-1.941613E-06
-94.78477E-03,-2.022610E-06
-99.77707E-03,-2.033760E-06
-104.7512E-03,-2.157740E-06
-109.7738E-03,-2.140881E-06
-114.7506E-03,-2.220833E-06
-119.7186E-03,-2.230082E-06
-124.7491E-03,-2.259385E-06
-129.7127E-03,-2.315379E-06
-134.7269E-03,-2.342907E-06
-139.7730E-03,-2.317293E-06
-144.7211E-03,-2.389234E-06
-149.6822E-03,-2.400780E-06
-154.7043E-03,-2.396000E-06
-159.6898E-03,-2.418225E-06
-164.6472E-03,-2.506556E-06
-169.6916E-03,-2.475738E-06
-174.6812E-03,-2.472521E-06
-179.6654E-03,-2.501918E-06
-184.6705E-03,-2.528592E-06
-189.6805E-03,-2.541643E-06
-194.6462E-03,-2.525605E-06
-199.6404E-03,-2.524336E-06
-204.6495E-03,-2.555686E-06
-209.6374E-03,-2.523321E-06
-214.6254E-03,-2.536180E-06
-219.6538E-03,-2.565443E-06
-224.6532E-03,-2.567715E-06
-229.6045E-03,-2.524968E-06
-234.6308E-03,-2.564491E-06
-239.6441E-03,-2.592536E-06
-244.6000E-03,-2.607394E-06
-249.5145E-03,-2.558260E-06
-254.5832E-03,-2.605332E-06
-259.5801E-03,-2.582858E-06
-264.5662E-03,-2.593583E-06
-269.5589E-03,-2.595487E-06
-274.5485E-03,-2.599234E-06
-279.5264E-03,-2.576980E-06
-284.5611E-03,-2.598112E-06
-289.5414E-03,-2.554485E-06
-294.5336E-03,-2.589758E-06
-299.5237E-03,-2.602186E-06
-304.5139E-03,-2.606044E-06
-309.5428E-03,-2.613734E-06
-314.5078E-03,-2.585053E-06
-319.4813E-03,-2.592028E-06
-324.4952E-03,-2.585044E-06
-329.4846E-03,-2.590124E-06
-334.4756E-03,-2.608066E-06
-339.5712E-03,-2.629814E-06
-344.4691E-03,-2.616841E-06
-349.5695E-03,-2.617735E-06
-354.4551E-03,-2.611246E-06
-359.4689E-03,-2.596236E-06
-364.4179E-03,-2.627096E-06
-369.4987E-03,-2.613491E-06
-374.4327E-03,-2.600972E-06
-379.4228E-03,-2.606641E-06
-384.4156E-03,-2.620982E-06
-389.3937E-03,-2.594300E-06
-394.3281E-03,-2.592871E-06
-399.3746E-03,-2.601886E-06
-404.3751E-03,-2.618624E-06
-409.3852E-03,-2.612360E-06
-414.3449E-03,-2.620352E-06
-419.3474E-03,-2.611136E-06
-424.3267E-03,-2.615551E-06
-429.3269E-03,-2.632416E-06
-434.3395E-03,-2.618699E-06
-439.3473E-03,-2.629722E-06
-444.3151E-03,-2.606857E-06
-449.2322E-03,-2.609860E-06
-454.2888E-03,-2.612309E-06
-458.9784E-03,-2.605692E-06
-464.1700E-03,-2.614652E-06
-469.7137E-03,-2.606565E-06
-474.2270E-03,-2.607999E-06
-479.1308E-03,-2.616325E-06
-484.2223E-03,-2.608547E-06
-489.3792E-03,-2.601601E-06
-494.1593E-03,-2.617506E-06
-499.4688E-03,-2.608454E-06

-499.4668E-03,-2.607840E-06
-494.6963E-03,-2.605454E-06
-489.7967E-03,-2.606142E-06
-484.8153E-03,-2.605766E-06
-479.8701E-03,-2.605760E-06
-474.8647E-03,-2.613755E-06
-469.7914E-03,-2.613219E-06
-464.9043E-03,-2.612595E-06
-459.8809E-03,-2.613959E-06
-454.8714E-03,-2.611552E-06
-449.8558E-03,-2.613170E-06
-444.8537E-03,-2.615227E-06
-439.8483E-03,-2.615011E-06
-434.8535E-03,-2.614112E-06
-429.8672E-03,-2.611158E-06
-424.8527E-03,-2.614893E-06
-419.8586E-03,-2.608352E-06
-414.8820E-03,-2.608769E-06
-409.8558E-03,-2.614624E-06
-404.8458E-03,-2.620110E-06
-399.8629E-03,-2.619255E-06
-394.8049E-03,-2.615615E-06
-389.8425E-03,-2.608157E-06
-384.8579E-03,-2.615417E-06
-379.8708E-03,-2.612021E-06
-374.8596E-03,-2.611012E-06
-369.8600E-03,-2.621532E-06
-364.8588E-03,-2.609558E-06
-359.8602E-03,-2.613182E-06
-354.8276E-03,-2.619608E-06
-349.9029E-03,-2.608125E-06
-344.8663E-03,-2.617483E-06
-339.8692E-03,-2.613043E-06
-334.8990E-03,-2.603043E-06
-329.9299E-03,-2.622164E-06
-324.8832E-03,-2.619012E-06
-319.8594E-03,-2.618459E-06
-314.8951E-03,-2.614774E-06
-309.8865E-03,-2.594184E-06
-304.8936E-03,-2.605585E-06
-299.9435E-03,-2.608671E-06
-294.9035E-03,-2.605567E-06
-289.9213E-03,-2.607001E-06
-284.9316E-03,-2.604264E-06
-279.9239E-03,-2.598915E-06
-274.9279E-03,-2.592234E-06
-269.8985E-03,-2.579667E-06
-264.9361E-03,-2.592943E-06
-259.9448E-03,-2.583811E-06
-254.9552E-03,-2.590219E-06
-249.9648E-03,-2.581323E-06
-244.9847E-03,-2.588568E-06
-239.9419E-03,-2.572453E-06
-234.9622E-03,-2.580557E-06
-229.9660E-03,-2.571040E-06
-224.9722E-03,-2.568363E-06
-219.9704E-03,-2.548680E-06
-215.0392E-03,-2.546216E-06
-209.9853E-03,-2.540875E-06
-204.9895E-03,-2.533565E-06
-199.9807E-03,-2.523668E-06
-194.9800E-03,-2.511616E-06
-189.9993E-03,-2.506601E-06
-185.0038E-03,-2.497064E-06
-180.0105E-03,-2.489058E-06
-174.9998E-03,-2.492901E-06
-170.0103E-03,-2.453139E-06
-165.0102E-03,-2.478046E-06
-160.0448E-03,-2.439424E-06
-154.9642E-03,-2.418297E-06
-150.0023E-03,-2.376756E-06
-145.0059E-03,-2.410173E-06
-140.0261E-03,-2.365248E-06
-135.0248E-03,-2.329907E-06
-130.0864E-03,-2.313975E-06
-125.0416E-03,-2.263563E-06
-119.9983E-03,-2.261521E-06
-115.1300E-03,-2.189375E-06
-110.1350E-03,-2.178209E-06
-105.0398E-03,-2.123395E-06
-100.1086E-03,-2.046623E-06
-95.15348E-03,-2.009383E-06
-90.70958E-03,-1.947573E-06
-84.92065E-03,-2.018270E-06
-80.29965E-03,-1.882137E-06
-74.82934E-03,-1.773625E-06
-70.08920E-03,-1.700105E-06
-65.15189E-03,-1.568546E-06
-60.09025E-03,-1.475307E-06
-55.12208E-03,-1.476928E-06
-50.09902E-03,-1.363895E-06
-45.12365E-03,-1.222947E-06
-40.11858E-03,-1.131635E-06
-35.13924E-03,-1.019446E-06
-30.14060E-03,-954.7891E-09
-25.12278E-03,-776.3095E-09
-20.14117E-03,-666.6062E-09
-15.14449E-03,-568.1227E-09
-10.16387E-03,-434.9018E-09
-5.123362E-03,-279.1736E-09
-171.4726E-06,-135.1072E-09
+4.810159E-03,+16.81075E-09
+9.817382E-03,+172.8865E-09
+14.77673E-03,+349.8882E-09
+19.73104E-03,+466.4660E-09
+24.77650E-03,+641.6426E-09
+29.75079E-03,+725.9335E-09
+34.74087E-03,+910.4679E-09
+39.76122E-03,+1.038978E-06
+44.74280E-03,+1.184468E-06
+49.72336E-03,+1.175833E-06
+54.72547E-03,+1.313563E-06
+59.72129E-03,+1.419271E-06
+64.73073E-03,+1.566586E-06
+69.71239E-03,+1.661730E-06
+74.71223E-03,+1.720425E-06
+79.74549E-03,+1.806089E-06
+84.71493E-03,+1.919926E-06
+89.70759E-03,+1.955760E-06
+94.68689E-03,+2.005245E-06
+99.67198E-03,+2.073909E-06
+104.6744E-03,+2.138131E-06
+109.7251E-03,+2.139890E-06
+114.6669E-03,+2.220999E-06
+119.6560E-03,+2.286843E-06
+124.6456E-03,+2.285145E-06
+129.6663E-03,+2.355060E-06
+134.6270E-03,+2.333365E-06
+139.6329E-03,+2.387300E-06
+144.6102E-03,+2.375534E-06
+149.6057E-03,+2.371357E-06
+154.6159E-03,+2.430286E-06
+159.6186E-03,+2.419021E-06
+164.6255E-03,+2.439667E-06
+169.6160E-03,+2.493433E-06
+174.5937E-03,+2.546500E-06
+179.5978E-03,+2.523672E-06
+184.5752E-03,+2.543745E-06
+189.5890E-03,+2.472775E-06
+194.6153E-03,+2.529571E-06
+199.5530E-03,+2.539284E-06
+204.5617E-03,+2.532090E-06
+209.5592E-03,+2.524140E-06
+214.5345E-03,+2.552306E-06
+219.4909E-03,+2.578259E-06
+224.5208E-03,+2.583114E-06
+229.5337E-03,+2.563989E-06
+234.4292E-03,+2.573330E-06
+239.5573E-03,+2.607314E-06
+244.5072E-03,+2.556474E-06
+249.5118E-03,+2.603468E-06
+254.5024E-03,+2.577832E-06
+259.5502E-03,+2.605495E-06
+264.4999E-03,+2.592579E-06
+269.4696E-03,+2.613242E-06
+274.4831E-03,+2.588665E-06
+279.5078E-03,+2.630483E-06
+284.4504E-03,+2.610441E-06
+289.4596E-03,+2.613383E-06
+294.4251E-03,+2.585279E-06
+299.4581E-03,+2.633239E-06
+304.4197E-03,+2.580736E-06
+309.5423E-03,+2.630025E-06
+314.4317E-03,+2.624982E-06
+319.4205E-03,+2.607735E-06
+324.4128E-03,+2.617650E-06
+329.3972E-03,+2.586515E-06
+334.3696E-03,+2.630234E-06
+339.3908E-03,+2.618272E-06
+344.3709E-03,+2.635382E-06
+349.3708E-03,+2.633205E-06
+354.3602E-03,+2.602222E-06
+359.4244E-03,+2.616698E-06
+364.3654E-03,+2.616311E-06
+369.3260E-03,+2.628681E-06
+374.3322E-03,+2.631072E-06
+379.3299E-03,+2.637458E-06
+384.3298E-03,+2.614455E-06
+389.3123E-03,+2.625489E-06
+394.3639E-03,+2.607404E-06
+399.2957E-03,+2.625681E-06
+404.2843E-03,+2.617987E-06
+409.2989E-03,+2.623298E-06
+414.2935E-03,+2.627348E-06
+419.2017E-03,+2.637348E-06
+424.2465E-03,+2.611177E-06
+429.2343E-03,+2.620792E-06
+434.2364E-03,+2.631789E-06
+439.2631E-03,+2.632865E-06
+444.2264E-03,+2.631572E-06
+449.2059E-03,+2.610147E-06
+454.2232E-03,+2.621762E-06
+459.1952E-03,+2.627956E-06
+464.1659E-03,+2.598709E-06
+469.1629E-03,+2.607302E-06
+474.1808E-03,+2.623230E-06
+479.1911E-03,+2.616656E-06
+484.1557E-03,+2.619533E-06
+489.1864E-03,+2.625841E-06
+494.1110E-03,+2.602516E-06
+499.3636E-03,+2.610193E-06

MicroMag 2900/3900 Data File ends
