MicroMag 2900/3900 Data File (Series 0016.002)
Direct moment vs. field; Hysteresis loop

INSTRUMENT
Configuration                   VSM
Temperature control             None
Hardware version                0004
Software version                06/08/2012
Units of measure                Hybrid SI
Temperature in                  Kelvin

SAMPLE
Mass                            N/A
Volume                          N/A
Demagnetizing factor            N/A

SETTINGS
Field range                    +1.000000E+00
Field (command)                 N/A
Moment range                   +5.000000E-06
Averaging time                 +200.0000E-03
Temperature (command)           N/A
Tmprtr difference correction    No
Orientation                     0.000000E+00
Vibration amplitude             1.0
Calibration factor             +3.570920E+00
Operating frequency            +83.00000E+00
Sweep mode                      Discrete
Pause after sweep increment    +300.0000E-03

MEASUREMENT
Description                    "DQ15-33B1"
Field (measured)                N/A
Temperature (measured)          N/A
Averages (completed)            1
Measured on                     10/29/2016  16:46
Elapsed time                   +206.9214E+00

PROCESSING
Background subtraction          No
Delta-m processing              N/A
Demagnetizing factor            No
Normalization                   No
Normalization factor            N/A
Offset (field)                  No
Offset (moment)                 No
Pole saturation                 No
Slope correction                No

VIEWPORT
Left                           -500.0000E-03
Right                          +500.0000E-03
Bottom                         -5.000000E-06
Top                            +5.000000E-06
Show X-axis?                    Yes
Show Y-axis?                    Yes

CHARACTERIZATION
Initial slope                   N/A
Saturation                     +2.644837E-06
Remanence                      +125.0362E-09
Coercivity                     +4.321274E-03
S*                             +7.957575E-03

SCRIPT
Averages (target)               1
Averaging time                 +200.0000E-03
Demagnetize?                    No
Maximum field                  +500.0000E-03
Field increment                +5.000000E-03
Hysteresis loop?                Yes
Initial magnetization?          No
Pause                          +1.000000E+00
Saturate before measuring?      No
Number of segments              2
Number of data                  402

Segment   Averaging      Initial        Field         Final                    Final 
 Number      Time         Field       Increment       Field         Pause      Index 
             (s)           (T)           (T)           (T)           (s)     
0000001,+200.0000E-03,+500.0000E-03,+5.000000E-03,-500.0000E-03,+1.000000E+00,0000201
0000002,+200.0000E-03,-500.0000E-03,+5.000000E-03,+500.0000E-03,+1.000000E+00,0000402

                           
    Field         Moment   
     (T)          (Am²)    
+499.3487E-03,+2.644058E-06
+494.5650E-03,+2.647314E-06
+489.4673E-03,+2.647420E-06
+484.5439E-03,+2.647141E-06
+479.4038E-03,+2.650859E-06
+474.4916E-03,+2.650007E-06
+469.5773E-03,+2.651756E-06
+464.4351E-03,+2.652284E-06
+459.5390E-03,+2.653157E-06
+454.4016E-03,+2.655714E-06
+449.4858E-03,+2.652972E-06
+444.6011E-03,+2.653169E-06
+439.4530E-03,+2.654747E-06
+434.5406E-03,+2.655022E-06
+429.6423E-03,+2.653066E-06
+424.4958E-03,+2.653789E-06
+419.5952E-03,+2.657192E-06
+414.4610E-03,+2.650580E-06
+409.5591E-03,+2.655588E-06
+404.6462E-03,+2.655594E-06
+399.5237E-03,+2.650702E-06
+394.6069E-03,+2.653550E-06
+389.4535E-03,+2.655677E-06
+384.5691E-03,+2.656848E-06
+379.6674E-03,+2.654207E-06
+374.5203E-03,+2.652511E-06
+369.6183E-03,+2.653004E-06
+364.4827E-03,+2.654096E-06
+359.5734E-03,+2.649322E-06
+354.6712E-03,+2.654408E-06
+349.5334E-03,+2.652849E-06
+344.6299E-03,+2.651170E-06
+339.7295E-03,+2.648248E-06
+334.5861E-03,+2.648417E-06
+329.6988E-03,+2.647966E-06
+324.5553E-03,+2.649231E-06
+319.6476E-03,+2.647499E-06
+314.7514E-03,+2.645769E-06
+309.6002E-03,+2.647635E-06
+304.7108E-03,+2.645272E-06
+299.5662E-03,+2.647032E-06
+294.6598E-03,+2.638215E-06
+289.7633E-03,+2.642169E-06
+284.6291E-03,+2.638961E-06
+279.7062E-03,+2.634063E-06
+274.5726E-03,+2.636506E-06
+269.6796E-03,+2.630811E-06
+264.7710E-03,+2.629514E-06
+259.6301E-03,+2.623214E-06
+254.7306E-03,+2.628546E-06
+249.8276E-03,+2.616660E-06
+244.6927E-03,+2.615210E-06
+239.7895E-03,+2.613120E-06
+234.6389E-03,+2.613997E-06
+229.7496E-03,+2.608624E-06
+224.8525E-03,+2.605965E-06
+219.7108E-03,+2.595770E-06
+214.8039E-03,+2.593343E-06
+209.6615E-03,+2.588971E-06
+204.7642E-03,+2.576401E-06
+199.8506E-03,+2.568942E-06
+194.7241E-03,+2.571001E-06
+189.8285E-03,+2.564487E-06
+184.6636E-03,+2.545349E-06
+179.7803E-03,+2.537110E-06
+174.8792E-03,+2.523003E-06
+169.7239E-03,+2.511202E-06
+164.8332E-03,+2.495205E-06
+159.7060E-03,+2.480518E-06
+154.7798E-03,+2.464083E-06
+149.8800E-03,+2.447384E-06
+144.7409E-03,+2.422719E-06
+139.8392E-03,+2.398809E-06
+134.9354E-03,+2.374778E-06
+129.7996E-03,+2.347406E-06
+124.9074E-03,+2.305750E-06
+119.7649E-03,+2.278384E-06
+114.8605E-03,+2.253008E-06
+109.9692E-03,+2.203491E-06
+104.8256E-03,+2.155904E-06
+99.92271E-03,+2.110771E-06
+94.78661E-03,+2.054257E-06
+89.87805E-03,+1.997087E-06
+84.97894E-03,+1.936981E-06
+79.85317E-03,+1.871548E-06
+74.94301E-03,+1.794348E-06
+69.80058E-03,+1.724115E-06
+64.89884E-03,+1.641716E-06
+59.99267E-03,+1.561185E-06
+54.85152E-03,+1.460477E-06
+49.95283E-03,+1.368619E-06
+45.05620E-03,+1.256685E-06
+39.91869E-03,+1.166549E-06
+35.02068E-03,+1.048243E-06
+29.85564E-03,+933.1082E-09
+24.95639E-03,+814.4863E-09
+20.06434E-03,+692.8351E-09
+14.91461E-03,+553.5645E-09
+10.03653E-03,+414.2803E-09
+4.897125E-03,+279.1677E-09
-6.278409E-06,+128.5431E-09
-4.883664E-03,-7.260341E-09
-10.02468E-03,-173.1623E-09
-14.91801E-03,-326.4070E-09
-20.07007E-03,-477.5503E-09
-24.95009E-03,-635.2385E-09
-29.86735E-03,-767.3423E-09
-35.02589E-03,-901.1095E-09
-39.91755E-03,-1.022014E-06
-45.04620E-03,-1.159652E-06
-49.94541E-03,-1.262363E-06
-54.85269E-03,-1.365397E-06
-59.99134E-03,-1.472333E-06
-64.89179E-03,-1.580361E-06
-69.78827E-03,-1.662156E-06
-74.92956E-03,-1.747235E-06
-79.83889E-03,-1.816577E-06
-84.97652E-03,-1.898087E-06
-89.86863E-03,-1.956196E-06
-94.77738E-03,-2.021624E-06
-99.91197E-03,-2.076094E-06
-104.8192E-03,-2.148923E-06
-109.9616E-03,-2.179102E-06
-114.8648E-03,-2.223391E-06
-119.7537E-03,-2.270574E-06
-124.8834E-03,-2.293291E-06
-129.7992E-03,-2.341957E-06
-134.9311E-03,-2.357414E-06
-139.8292E-03,-2.379054E-06
-144.7431E-03,-2.418753E-06
-149.8776E-03,-2.435881E-06
-154.7694E-03,-2.462696E-06
-159.6959E-03,-2.471170E-06
-164.8206E-03,-2.479904E-06
-169.7146E-03,-2.507736E-06
-174.8763E-03,-2.523748E-06
-179.7662E-03,-2.530559E-06
-184.6735E-03,-2.535462E-06
-189.8148E-03,-2.548272E-06
-194.7020E-03,-2.560120E-06
-199.8412E-03,-2.560103E-06
-204.7617E-03,-2.579160E-06
-209.6404E-03,-2.584395E-06
-214.7859E-03,-2.590631E-06
-219.6870E-03,-2.597682E-06
-224.8425E-03,-2.600680E-06
-229.7233E-03,-2.601729E-06
-234.6269E-03,-2.608703E-06
-239.7803E-03,-2.596467E-06
-244.6677E-03,-2.618919E-06
-249.8018E-03,-2.617772E-06
-254.7075E-03,-2.631820E-06
-259.6096E-03,-2.625759E-06
-264.7373E-03,-2.621652E-06
-269.6470E-03,-2.626620E-06
-274.5396E-03,-2.632390E-06
-279.6797E-03,-2.634027E-06
-284.5961E-03,-2.640868E-06
-289.7322E-03,-2.642378E-06
-294.6287E-03,-2.643840E-06
-299.5331E-03,-2.630361E-06
-304.6708E-03,-2.635087E-06
-309.5707E-03,-2.636888E-06
-314.7208E-03,-2.644911E-06
-319.6195E-03,-2.642748E-06
-324.5034E-03,-2.648190E-06
-329.6522E-03,-2.645812E-06
-334.5705E-03,-2.649283E-06
-339.6815E-03,-2.637544E-06
-344.5859E-03,-2.650158E-06
-349.4859E-03,-2.656281E-06
-354.6344E-03,-2.647100E-06
-359.5358E-03,-2.643626E-06
-364.4417E-03,-2.647209E-06
-369.5844E-03,-2.646488E-06
-374.4671E-03,-2.645928E-06
-379.6133E-03,-2.655979E-06
-384.5188E-03,-2.650489E-06
-389.4113E-03,-2.647785E-06
-394.5788E-03,-2.649914E-06
-399.4535E-03,-2.652005E-06
-404.6001E-03,-2.653213E-06
-409.5009E-03,-2.650585E-06
-414.4061E-03,-2.655340E-06
-419.5367E-03,-2.646812E-06
-424.4386E-03,-2.650864E-06
-429.5693E-03,-2.649967E-06
-434.4765E-03,-2.649682E-06
-439.3727E-03,-2.646432E-06
-444.5255E-03,-2.645605E-06
-449.4112E-03,-2.649371E-06
-454.3099E-03,-2.645478E-06
-459.4599E-03,-2.652634E-06
-464.3582E-03,-2.647469E-06
-469.4944E-03,-2.648796E-06
-474.3992E-03,-2.642201E-06
-479.3073E-03,-2.647950E-06
-484.4209E-03,-2.643552E-06
-489.3518E-03,-2.645649E-06
-494.4849E-03,-2.648776E-06
-499.4421E-03,-2.643902E-06

-499.4628E-03,-2.644229E-06
-494.6736E-03,-2.646520E-06
-489.5682E-03,-2.644164E-06
-484.6511E-03,-2.644011E-06
-479.5137E-03,-2.645457E-06
-474.6119E-03,-2.645457E-06
-469.6957E-03,-2.648129E-06
-464.5550E-03,-2.648400E-06
-459.6647E-03,-2.647274E-06
-454.5193E-03,-2.647334E-06
-449.5957E-03,-2.651235E-06
-444.7052E-03,-2.649820E-06
-439.5615E-03,-2.649063E-06
-434.6515E-03,-2.647965E-06
-429.7451E-03,-2.643674E-06
-424.6318E-03,-2.653926E-06
-419.7066E-03,-2.648561E-06
-414.5676E-03,-2.651728E-06
-409.6908E-03,-2.650695E-06
-404.7499E-03,-2.649789E-06
-399.6142E-03,-2.654017E-06
-394.7330E-03,-2.645666E-06
-389.5711E-03,-2.651290E-06
-384.6908E-03,-2.651195E-06
-379.7590E-03,-2.655481E-06
-374.6141E-03,-2.650148E-06
-369.7126E-03,-2.649887E-06
-364.5985E-03,-2.648834E-06
-359.7042E-03,-2.651169E-06
-354.7879E-03,-2.647841E-06
-349.6436E-03,-2.646866E-06
-344.7313E-03,-2.649140E-06
-339.7915E-03,-2.650225E-06
-334.7242E-03,-2.645215E-06
-329.8078E-03,-2.648887E-06
-324.6527E-03,-2.645397E-06
-319.7578E-03,-2.644274E-06
-314.8634E-03,-2.641566E-06
-309.7275E-03,-2.643965E-06
-304.8281E-03,-2.640202E-06
-299.6563E-03,-2.636789E-06
-294.7636E-03,-2.635832E-06
-289.8684E-03,-2.634969E-06
-284.7299E-03,-2.636851E-06
-279.8124E-03,-2.635814E-06
-274.6688E-03,-2.630469E-06
-269.7703E-03,-2.628459E-06
-264.8768E-03,-2.627057E-06
-259.7400E-03,-2.627219E-06
-254.8401E-03,-2.621794E-06
-249.9218E-03,-2.614535E-06
-244.7934E-03,-2.615297E-06
-239.9061E-03,-2.612362E-06
-234.7552E-03,-2.609797E-06
-229.8481E-03,-2.604034E-06
-224.9495E-03,-2.599507E-06
-219.8065E-03,-2.592120E-06
-214.9052E-03,-2.589001E-06
-209.7661E-03,-2.579710E-06
-204.8595E-03,-2.574022E-06
-199.9570E-03,-2.567369E-06
-194.8146E-03,-2.561584E-06
-189.9269E-03,-2.552896E-06
-184.7782E-03,-2.546082E-06
-179.8906E-03,-2.525063E-06
-174.9851E-03,-2.524320E-06
-169.8353E-03,-2.509755E-06
-164.9363E-03,-2.494613E-06
-159.8008E-03,-2.476031E-06
-154.8819E-03,-2.458856E-06
-149.9895E-03,-2.436304E-06
-144.8566E-03,-2.417714E-06
-139.9511E-03,-2.401564E-06
-135.0412E-03,-2.368718E-06
-129.9118E-03,-2.342689E-06
-124.9986E-03,-2.313221E-06
-119.8575E-03,-2.280806E-06
-114.9600E-03,-2.237225E-06
-110.0739E-03,-2.201265E-06
-104.9331E-03,-2.150331E-06
-100.0200E-03,-2.102607E-06
-94.87673E-03,-2.044831E-06
-89.97022E-03,-1.982419E-06
-85.08297E-03,-1.932232E-06
-79.94407E-03,-1.863624E-06
-75.03618E-03,-1.792216E-06
-69.92360E-03,-1.719587E-06
-64.98464E-03,-1.629594E-06
-60.09662E-03,-1.558200E-06
-54.95466E-03,-1.453279E-06
-50.05012E-03,-1.356747E-06
-45.15215E-03,-1.255272E-06
-40.02548E-03,-1.147378E-06
-35.13429E-03,-1.049048E-06
-29.96932E-03,-920.8482E-09
-25.06437E-03,-800.6527E-09
-20.17845E-03,-686.7549E-09
-15.02098E-03,-535.3922E-09
-10.12746E-03,-412.5869E-09
-4.984127E-03,-264.4033E-09
-124.8229E-06,-125.1043E-09
+4.789403E-03,+23.23599E-09
+9.928999E-03,+189.6241E-09
+14.81016E-03,+336.7090E-09
+19.95748E-03,+490.0651E-09
+24.86368E-03,+640.2651E-09
+29.74965E-03,+772.1742E-09
+34.90644E-03,+899.6537E-09
+39.81556E-03,+1.033801E-06
+44.94047E-03,+1.154055E-06
+49.84915E-03,+1.278393E-06
+54.74088E-03,+1.386826E-06
+59.88426E-03,+1.484424E-06
+64.79248E-03,+1.581091E-06
+69.69247E-03,+1.672691E-06
+74.82325E-03,+1.748910E-06
+79.74319E-03,+1.828223E-06
+84.87239E-03,+1.898551E-06
+89.76626E-03,+1.960417E-06
+94.67626E-03,+2.020960E-06
+99.81833E-03,+2.088384E-06
+104.7073E-03,+2.140599E-06
+109.8581E-03,+2.203232E-06
+114.7641E-03,+2.224705E-06
+119.6556E-03,+2.264268E-06
+124.8022E-03,+2.300955E-06
+129.6976E-03,+2.341227E-06
+134.8303E-03,+2.367084E-06
+139.7334E-03,+2.391959E-06
+144.6523E-03,+2.408502E-06
+149.7751E-03,+2.443109E-06
+154.6632E-03,+2.460667E-06
+159.5844E-03,+2.482853E-06
+164.7147E-03,+2.488773E-06
+169.6142E-03,+2.503823E-06
+174.7683E-03,+2.521543E-06
+179.6736E-03,+2.539622E-06
+184.5490E-03,+2.533137E-06
+189.7082E-03,+2.562879E-06
+194.6100E-03,+2.561038E-06
+199.7390E-03,+2.580798E-06
+204.6323E-03,+2.576540E-06
+209.5222E-03,+2.583019E-06
+214.6776E-03,+2.584060E-06
+219.6116E-03,+2.602788E-06
+224.7221E-03,+2.596877E-06
+229.6197E-03,+2.602291E-06
+234.5139E-03,+2.612252E-06
+239.6644E-03,+2.620264E-06
+244.5743E-03,+2.620586E-06
+249.7186E-03,+2.625623E-06
+254.6088E-03,+2.619234E-06
+259.4949E-03,+2.629083E-06
+264.6415E-03,+2.625316E-06
+269.5343E-03,+2.634237E-06
+274.4703E-03,+2.634707E-06
+279.5652E-03,+2.629859E-06
+284.5095E-03,+2.645318E-06
+289.6428E-03,+2.645676E-06
+294.5363E-03,+2.646737E-06
+299.4516E-03,+2.648304E-06
+304.5745E-03,+2.636883E-06
+309.4655E-03,+2.643648E-06
+314.6172E-03,+2.644279E-06
+319.4992E-03,+2.647154E-06
+324.4125E-03,+2.649216E-06
+329.5465E-03,+2.659950E-06
+334.4444E-03,+2.642107E-06
+339.5820E-03,+2.648620E-06
+344.4884E-03,+2.649356E-06
+349.3902E-03,+2.653250E-06
+354.5256E-03,+2.651683E-06
+359.4309E-03,+2.656428E-06
+364.3284E-03,+2.659281E-06
+369.4724E-03,+2.657577E-06
+374.3706E-03,+2.648430E-06
+379.5165E-03,+2.656708E-06
+384.4202E-03,+2.656191E-06
+389.2959E-03,+2.651011E-06
+394.4555E-03,+2.656934E-06
+399.3562E-03,+2.644941E-06
+404.4836E-03,+2.658971E-06
+409.3886E-03,+2.651890E-06
+414.2947E-03,+2.654627E-06
+419.4402E-03,+2.656564E-06
+424.3305E-03,+2.658570E-06
+429.4656E-03,+2.652057E-06
+434.3623E-03,+2.655931E-06
+439.2793E-03,+2.652630E-06
+444.4126E-03,+2.657755E-06
+449.3067E-03,+2.649681E-06
+454.2007E-03,+2.648145E-06
+459.3470E-03,+2.646939E-06
+464.2418E-03,+2.652202E-06
+469.3719E-03,+2.653851E-06
+474.2920E-03,+2.650366E-06
+479.1879E-03,+2.648260E-06
+484.3136E-03,+2.656870E-06
+489.2136E-03,+2.646744E-06
+494.3642E-03,+2.653755E-06
+499.3471E-03,+2.655320E-06

MicroMag 2900/3900 Data File ends
