MicroMag 2900/3900 Data File (Series 0016.002)
Direct moment vs. field; Hysteresis loop

INSTRUMENT
Configuration                   VSM
Temperature control             None
Hardware version                0004
Software version                06/08/2012
Units of measure                Hybrid SI
Temperature in                  Kelvin

SAMPLE
Mass                            N/A
Volume                          N/A
Demagnetizing factor            N/A

SETTINGS
Field range                    +1.000000E+00
Field (command)                 N/A
Moment range                   +5.000000E-06
Averaging time                 +200.0000E-03
Temperature (command)           N/A
Tmprtr difference correction    No
Orientation                     0.000000E+00
Vibration amplitude             1.0
Calibration factor             +3.570920E+00
Operating frequency            +83.00000E+00
Sweep mode                      Discrete
Pause after sweep increment    +300.0000E-03

MEASUREMENT
Description                    "DQ15-33B1"
Field (measured)                N/A
Temperature (measured)          N/A
Averages (completed)            1
Measured on                     10/29/2016  16:32
Elapsed time                   +207.0874E+00

PROCESSING
Background subtraction          No
Delta-m processing              N/A
Demagnetizing factor            No
Normalization                   No
Normalization factor            N/A
Offset (field)                  No
Offset (moment)                 No
Pole saturation                 No
Slope correction                No

VIEWPORT
Left                           -500.0000E-03
Right                          +500.0000E-03
Bottom                         -5.000000E-06
Top                            +5.000000E-06
Show X-axis?                    Yes
Show Y-axis?                    Yes

CHARACTERIZATION
Initial slope                   N/A
Saturation                     +2.643090E-06
Remanence                      +125.8686E-09
Coercivity                     +4.217135E-03
S*                             -1.687128E-06

SCRIPT
Averages (target)               1
Averaging time                 +200.0000E-03
Demagnetize?                    No
Maximum field                  +500.0000E-03
Field increment                +5.000000E-03
Hysteresis loop?                Yes
Initial magnetization?          No
Pause                          +1.000000E+00
Saturate before measuring?      No
Number of segments              2
Number of data                  402

Segment   Averaging      Initial        Field         Final                    Final 
 Number      Time         Field       Increment       Field         Pause      Index 
             (s)           (T)           (T)           (T)           (s)     
0000001,+200.0000E-03,+500.0000E-03,+5.000000E-03,-500.0000E-03,+1.000000E+00,0000201
0000002,+200.0000E-03,-500.0000E-03,+5.000000E-03,+500.0000E-03,+1.000000E+00,0000402

                           
    Field         Moment   
     (T)          (Am²)    
+499.3403E-03,+2.646239E-06
+494.5602E-03,+2.644853E-06
+489.4597E-03,+2.646766E-06
+484.5439E-03,+2.642756E-06
+479.4036E-03,+2.645196E-06
+474.4943E-03,+2.649042E-06
+469.5852E-03,+2.644130E-06
+464.4384E-03,+2.647333E-06
+459.5405E-03,+2.646885E-06
+454.3982E-03,+2.649847E-06
+449.4873E-03,+2.648459E-06
+444.6059E-03,+2.651229E-06
+439.4568E-03,+2.651702E-06
+434.5425E-03,+2.647487E-06
+429.6387E-03,+2.653502E-06
+424.5048E-03,+2.646852E-06
+419.6028E-03,+2.652188E-06
+414.4653E-03,+2.652220E-06
+409.5505E-03,+2.645556E-06
+404.6460E-03,+2.655023E-06
+399.5152E-03,+2.652593E-06
+394.6112E-03,+2.651376E-06
+389.4546E-03,+2.646505E-06
+384.5757E-03,+2.652589E-06
+379.6693E-03,+2.648636E-06
+374.5150E-03,+2.650102E-06
+369.6191E-03,+2.652333E-06
+364.4849E-03,+2.646404E-06
+359.5819E-03,+2.647859E-06
+354.6658E-03,+2.653897E-06
+349.5330E-03,+2.646963E-06
+344.6272E-03,+2.651815E-06
+339.7270E-03,+2.650611E-06
+334.5876E-03,+2.646749E-06
+329.6949E-03,+2.642672E-06
+324.5525E-03,+2.647592E-06
+319.6499E-03,+2.646186E-06
+314.7478E-03,+2.644895E-06
+309.5991E-03,+2.644567E-06
+304.7064E-03,+2.639905E-06
+299.5656E-03,+2.641791E-06
+294.6603E-03,+2.635524E-06
+289.7706E-03,+2.639747E-06
+284.6285E-03,+2.632375E-06
+279.7072E-03,+2.633298E-06
+274.5745E-03,+2.631800E-06
+269.6764E-03,+2.627944E-06
+264.7746E-03,+2.626439E-06
+259.6232E-03,+2.623269E-06
+254.7333E-03,+2.621831E-06
+249.8265E-03,+2.619030E-06
+244.7003E-03,+2.612887E-06
+239.7871E-03,+2.607323E-06
+234.6412E-03,+2.611269E-06
+229.7451E-03,+2.604716E-06
+224.8526E-03,+2.604482E-06
+219.7143E-03,+2.597072E-06
+214.8012E-03,+2.587341E-06
+209.6626E-03,+2.586787E-06
+204.7619E-03,+2.577186E-06
+199.8518E-03,+2.572763E-06
+194.7206E-03,+2.563516E-06
+189.8262E-03,+2.552095E-06
+184.6703E-03,+2.544162E-06
+179.7858E-03,+2.532900E-06
+174.8769E-03,+2.517544E-06
+169.7302E-03,+2.508392E-06
+164.8289E-03,+2.495902E-06
+159.7009E-03,+2.476036E-06
+154.7748E-03,+2.463415E-06
+149.8781E-03,+2.442209E-06
+144.7507E-03,+2.418545E-06
+139.8393E-03,+2.402558E-06
+134.9453E-03,+2.374485E-06
+129.7976E-03,+2.345301E-06
+124.9159E-03,+2.311886E-06
+119.7667E-03,+2.286921E-06
+114.8602E-03,+2.236691E-06
+109.9627E-03,+2.199920E-06
+104.8195E-03,+2.159663E-06
+99.91912E-03,+2.107678E-06
+94.78488E-03,+2.053595E-06
+89.87274E-03,+1.995641E-06
+84.97822E-03,+1.934289E-06
+79.84435E-03,+1.869426E-06
+74.92580E-03,+1.801136E-06
+69.78641E-03,+1.717504E-06
+64.89575E-03,+1.628606E-06
+59.99138E-03,+1.552206E-06
+54.84403E-03,+1.460852E-06
+49.94707E-03,+1.362590E-06
+45.04114E-03,+1.264406E-06
+39.90773E-03,+1.159873E-06
+35.01664E-03,+1.042225E-06
+29.85760E-03,+933.2962E-09
+24.95531E-03,+804.5463E-09
+20.07031E-03,+682.7506E-09
+14.91249E-03,+546.7840E-09
+10.03199E-03,+427.2648E-09
+4.897058E-03,+272.2462E-09
-2.467591E-06,+128.6720E-09
-4.885222E-03,-13.54117E-09
-10.01668E-03,-166.6686E-09
-14.91832E-03,-322.2279E-09
-20.06333E-03,-478.1734E-09
-24.95635E-03,-621.6965E-09
-29.86655E-03,-757.0271E-09
-35.02550E-03,-907.8227E-09
-39.92177E-03,-1.027272E-06
-45.05756E-03,-1.161194E-06
-49.94651E-03,-1.272368E-06
-54.86187E-03,-1.380839E-06
-59.99643E-03,-1.482936E-06
-64.89005E-03,-1.569234E-06
-69.79145E-03,-1.660563E-06
-74.92188E-03,-1.748006E-06
-79.84237E-03,-1.826870E-06
-84.98044E-03,-1.905983E-06
-89.87831E-03,-1.948521E-06
-94.77665E-03,-2.017194E-06
-99.91433E-03,-2.073718E-06
-104.8215E-03,-2.128431E-06
-109.9603E-03,-2.181647E-06
-114.8643E-03,-2.207277E-06
-119.7509E-03,-2.258191E-06
-124.8903E-03,-2.296887E-06
-129.8127E-03,-2.330828E-06
-134.9376E-03,-2.361754E-06
-139.8299E-03,-2.385182E-06
-144.7332E-03,-2.409128E-06
-149.8762E-03,-2.436110E-06
-154.7722E-03,-2.467209E-06
-159.6988E-03,-2.473573E-06
-164.8231E-03,-2.483530E-06
-169.7169E-03,-2.505889E-06
-174.8765E-03,-2.510546E-06
-179.7725E-03,-2.527610E-06
-184.6723E-03,-2.536707E-06
-189.8190E-03,-2.548784E-06
-194.7063E-03,-2.559874E-06
-199.8383E-03,-2.569434E-06
-204.7520E-03,-2.577028E-06
-209.6504E-03,-2.585386E-06
-214.7797E-03,-2.578267E-06
-219.6938E-03,-2.598005E-06
-224.8325E-03,-2.599334E-06
-229.7259E-03,-2.596364E-06
-234.6307E-03,-2.616399E-06
-239.7910E-03,-2.609284E-06
-244.6711E-03,-2.615130E-06
-249.8123E-03,-2.611565E-06
-254.7122E-03,-2.622970E-06
-259.6150E-03,-2.616025E-06
-264.7390E-03,-2.622572E-06
-269.6435E-03,-2.614367E-06
-274.5480E-03,-2.626519E-06
-279.6852E-03,-2.625846E-06
-284.6003E-03,-2.634309E-06
-289.7356E-03,-2.631378E-06
-294.6256E-03,-2.635261E-06
-299.5437E-03,-2.641993E-06
-304.6708E-03,-2.634384E-06
-309.5854E-03,-2.636690E-06
-314.7263E-03,-2.647792E-06
-319.6236E-03,-2.641393E-06
-324.5204E-03,-2.637276E-06
-329.6627E-03,-2.641796E-06
-334.5700E-03,-2.645680E-06
-339.6894E-03,-2.651540E-06
-344.5883E-03,-2.641963E-06
-349.4916E-03,-2.648874E-06
-354.6373E-03,-2.646724E-06
-359.5360E-03,-2.645775E-06
-364.4445E-03,-2.643238E-06
-369.5762E-03,-2.646423E-06
-374.4600E-03,-2.645148E-06
-379.6219E-03,-2.649296E-06
-384.5186E-03,-2.649501E-06
-389.4175E-03,-2.648746E-06
-394.5759E-03,-2.647972E-06
-399.4662E-03,-2.646288E-06
-404.5951E-03,-2.652619E-06
-409.5015E-03,-2.646623E-06
-414.4062E-03,-2.644250E-06
-419.5421E-03,-2.648924E-06
-424.4400E-03,-2.646208E-06
-429.5886E-03,-2.644800E-06
-434.4767E-03,-2.647639E-06
-439.3845E-03,-2.646115E-06
-444.5293E-03,-2.648291E-06
-449.4144E-03,-2.647823E-06
-454.3102E-03,-2.649491E-06
-459.4663E-03,-2.648107E-06
-464.3628E-03,-2.647909E-06
-469.5038E-03,-2.644419E-06
-474.4173E-03,-2.644028E-06
-479.3038E-03,-2.647031E-06
-484.4331E-03,-2.641103E-06
-489.3506E-03,-2.643780E-06
-494.4813E-03,-2.645169E-06
-499.4512E-03,-2.639816E-06

-499.4677E-03,-2.645647E-06
-494.6864E-03,-2.637348E-06
-489.5832E-03,-2.639592E-06
-484.6641E-03,-2.644693E-06
-479.5232E-03,-2.645319E-06
-474.6185E-03,-2.643185E-06
-469.7016E-03,-2.640663E-06
-464.5500E-03,-2.643469E-06
-459.6548E-03,-2.642518E-06
-454.5093E-03,-2.645487E-06
-449.6096E-03,-2.644599E-06
-444.6974E-03,-2.643222E-06
-439.5633E-03,-2.645236E-06
-434.6485E-03,-2.645699E-06
-429.7520E-03,-2.649945E-06
-424.6081E-03,-2.647314E-06
-419.7026E-03,-2.644768E-06
-414.5637E-03,-2.648989E-06
-409.6637E-03,-2.644550E-06
-404.7527E-03,-2.646002E-06
-399.6128E-03,-2.645881E-06
-394.7323E-03,-2.651248E-06
-389.5715E-03,-2.648954E-06
-384.6758E-03,-2.648165E-06
-379.7754E-03,-2.648595E-06
-374.6231E-03,-2.649758E-06
-369.7306E-03,-2.645797E-06
-364.5923E-03,-2.641925E-06
-359.6893E-03,-2.645966E-06
-354.7665E-03,-2.645117E-06
-349.6329E-03,-2.646373E-06
-344.7303E-03,-2.647297E-06
-339.8183E-03,-2.643517E-06
-334.7110E-03,-2.643084E-06
-329.7927E-03,-2.646575E-06
-324.6445E-03,-2.639116E-06
-319.7550E-03,-2.642602E-06
-314.8561E-03,-2.640890E-06
-309.7088E-03,-2.636598E-06
-304.8124E-03,-2.636254E-06
-299.6691E-03,-2.635941E-06
-294.7541E-03,-2.639753E-06
-289.8762E-03,-2.635529E-06
-284.7427E-03,-2.634987E-06
-279.8053E-03,-2.624530E-06
-274.6730E-03,-2.626884E-06
-269.7765E-03,-2.625638E-06
-264.8760E-03,-2.628242E-06
-259.7329E-03,-2.618094E-06
-254.8272E-03,-2.618624E-06
-249.9379E-03,-2.620766E-06
-244.7997E-03,-2.606498E-06
-239.9131E-03,-2.605744E-06
-234.7594E-03,-2.602704E-06
-229.8464E-03,-2.595428E-06
-224.9619E-03,-2.595496E-06
-219.8141E-03,-2.587220E-06
-214.9125E-03,-2.588155E-06
-209.7700E-03,-2.588043E-06
-204.8708E-03,-2.568910E-06
-199.9600E-03,-2.566670E-06
-194.8239E-03,-2.556451E-06
-189.9344E-03,-2.544664E-06
-184.7834E-03,-2.541124E-06
-179.8878E-03,-2.530332E-06
-174.9961E-03,-2.519214E-06
-169.8271E-03,-2.502916E-06
-164.9422E-03,-2.494070E-06
-159.8015E-03,-2.476432E-06
-154.8897E-03,-2.458645E-06
-149.9850E-03,-2.436861E-06
-144.8503E-03,-2.417989E-06
-139.9486E-03,-2.391775E-06
-135.0435E-03,-2.369537E-06
-129.9120E-03,-2.341912E-06
-125.0087E-03,-2.305980E-06
-119.8662E-03,-2.270383E-06
-114.9729E-03,-2.231175E-06
-110.0771E-03,-2.196656E-06
-104.9401E-03,-2.154551E-06
-100.0271E-03,-2.100150E-06
-94.89235E-03,-2.046984E-06
-89.96808E-03,-1.984134E-06
-85.08842E-03,-1.923681E-06
-79.94292E-03,-1.865462E-06
-75.02425E-03,-1.796897E-06
-69.89815E-03,-1.711579E-06
-64.99884E-03,-1.629065E-06
-60.09778E-03,-1.542850E-06
-54.96722E-03,-1.456065E-06
-50.05638E-03,-1.352061E-06
-45.14995E-03,-1.258292E-06
-40.01607E-03,-1.158018E-06
-35.11805E-03,-1.041763E-06
-29.97583E-03,-922.4901E-09
-25.06617E-03,-799.9841E-09
-20.16911E-03,-679.5505E-09
-15.02045E-03,-544.9683E-09
-10.12105E-03,-415.7085E-09
-4.982711E-03,-262.1823E-09
-116.2801E-06,-126.5559E-09
+4.785746E-03,+23.64813E-09
+9.927776E-03,+193.9995E-09
+14.81339E-03,+329.7055E-09
+19.95543E-03,+483.9699E-09
+24.86319E-03,+636.6730E-09
+29.74727E-03,+765.5582E-09
+34.90939E-03,+910.1719E-09
+39.80418E-03,+1.041551E-06
+44.94765E-03,+1.155470E-06
+49.84098E-03,+1.283693E-06
+54.75178E-03,+1.384984E-06
+59.88653E-03,+1.483479E-06
+64.78993E-03,+1.573961E-06
+69.69377E-03,+1.674863E-06
+74.81987E-03,+1.750053E-06
+79.73840E-03,+1.839134E-06
+84.87605E-03,+1.891650E-06
+89.76790E-03,+1.967916E-06
+94.68418E-03,+2.020572E-06
+99.81736E-03,+2.086373E-06
+104.7061E-03,+2.134748E-06
+109.8567E-03,+2.183875E-06
+114.7559E-03,+2.224052E-06
+119.6571E-03,+2.271592E-06
+124.7987E-03,+2.303704E-06
+129.6963E-03,+2.335124E-06
+134.8354E-03,+2.363438E-06
+139.7312E-03,+2.392021E-06
+144.6312E-03,+2.415459E-06
+149.7697E-03,+2.433609E-06
+154.6774E-03,+2.462338E-06
+159.5900E-03,+2.480511E-06
+164.7227E-03,+2.482767E-06
+169.6178E-03,+2.508595E-06
+174.7668E-03,+2.522085E-06
+179.6721E-03,+2.536384E-06
+184.5497E-03,+2.538868E-06
+189.7027E-03,+2.551275E-06
+194.6097E-03,+2.565924E-06
+199.7372E-03,+2.566087E-06
+204.6423E-03,+2.575142E-06
+209.5354E-03,+2.579036E-06
+214.6807E-03,+2.584670E-06
+219.5770E-03,+2.593002E-06
+224.7323E-03,+2.596349E-06
+229.6218E-03,+2.601778E-06
+234.5234E-03,+2.610109E-06
+239.6643E-03,+2.616291E-06
+244.5717E-03,+2.619402E-06
+249.7093E-03,+2.618645E-06
+254.6043E-03,+2.619849E-06
+259.5161E-03,+2.620334E-06
+264.6519E-03,+2.628925E-06
+269.5500E-03,+2.630978E-06
+274.4430E-03,+2.634390E-06
+279.5794E-03,+2.632674E-06
+284.5046E-03,+2.631734E-06
+289.6332E-03,+2.636011E-06
+294.5205E-03,+2.635923E-06
+299.4342E-03,+2.643211E-06
+304.5753E-03,+2.638380E-06
+309.4579E-03,+2.640029E-06
+314.6196E-03,+2.642079E-06
+319.5092E-03,+2.647419E-06
+324.4083E-03,+2.641007E-06
+329.5534E-03,+2.647265E-06
+334.4482E-03,+2.644255E-06
+339.5793E-03,+2.645500E-06
+344.4839E-03,+2.645714E-06
+349.3852E-03,+2.647811E-06
+354.5287E-03,+2.650754E-06
+359.4356E-03,+2.649088E-06
+364.3392E-03,+2.647948E-06
+369.4747E-03,+2.651968E-06
+374.3783E-03,+2.655121E-06
+379.5213E-03,+2.650368E-06
+384.4191E-03,+2.651339E-06
+389.3015E-03,+2.649092E-06
+394.4550E-03,+2.657275E-06
+399.3542E-03,+2.649925E-06
+404.4898E-03,+2.657443E-06
+409.3938E-03,+2.654733E-06
+414.3014E-03,+2.654366E-06
+419.4306E-03,+2.651627E-06
+424.3316E-03,+2.649575E-06
+429.4687E-03,+2.652947E-06
+434.3719E-03,+2.651358E-06
+439.2707E-03,+2.653466E-06
+444.4201E-03,+2.647608E-06
+449.3034E-03,+2.647537E-06
+454.1939E-03,+2.652157E-06
+459.3469E-03,+2.648051E-06
+464.2486E-03,+2.646603E-06
+469.3672E-03,+2.652888E-06
+474.2790E-03,+2.652165E-06
+479.1820E-03,+2.647997E-06
+484.3129E-03,+2.645921E-06
+489.2254E-03,+2.649711E-06
+494.3561E-03,+2.646358E-06
+499.3417E-03,+2.643454E-06

MicroMag 2900/3900 Data File ends
