MicroMag 2900/3900 Data File (Series 0016.002)
Direct moment vs. field; Hysteresis loop

INSTRUMENT
Configuration                   VSM
Temperature control             None
Hardware version                0004
Software version                06/08/2012
Units of measure                Hybrid SI
Temperature in                  Kelvin

SAMPLE
Mass                            N/A
Volume                          N/A
Demagnetizing factor            N/A

SETTINGS
Field range                    +1.000000E+00
Field (command)                 N/A
Moment range                   +5.000000E-06
Averaging time                 +200.0000E-03
Temperature (command)           N/A
Tmprtr difference correction    No
Orientation                     0.000000E+00
Vibration amplitude             1.0
Calibration factor             +3.570920E+00
Operating frequency            +83.00000E+00
Sweep mode                      Discrete
Pause after sweep increment    +300.0000E-03

MEASUREMENT
Description                    "DQ15-33B1"
Field (measured)                N/A
Temperature (measured)          N/A
Averages (completed)            1
Measured on                     10/29/2016  16:11
Elapsed time                   +207.0005E+00

PROCESSING
Background subtraction          No
Delta-m processing              N/A
Demagnetizing factor            No
Normalization                   No
Normalization factor            N/A
Offset (field)                  No
Offset (moment)                 No
Pole saturation                 No
Slope correction                No

VIEWPORT
Left                           -500.0000E-03
Right                          +500.0000E-03
Bottom                         -5.000000E-06
Top                            +5.000000E-06
Show X-axis?                    Yes
Show Y-axis?                    Yes

CHARACTERIZATION
Initial slope                   N/A
Saturation                     +2.638810E-06
Remanence                      +125.0181E-09
Coercivity                     +4.217473E-03
S*                             +8.376621E-03

SCRIPT
Averages (target)               1
Averaging time                 +200.0000E-03
Demagnetize?                    No
Maximum field                  +500.0000E-03
Field increment                +5.000000E-03
Hysteresis loop?                Yes
Initial magnetization?          No
Pause                          +1.000000E+00
Saturate before measuring?      No
Number of segments              2
Number of data                  402

Segment   Averaging      Initial        Field         Final                    Final 
 Number      Time         Field       Increment       Field         Pause      Index 
             (s)           (T)           (T)           (T)           (s)     
0000001,+200.0000E-03,+500.0000E-03,+5.000000E-03,-500.0000E-03,+1.000000E+00,0000201
0000002,+200.0000E-03,-500.0000E-03,+5.000000E-03,+500.0000E-03,+1.000000E+00,0000402

                           
    Field         Moment   
     (T)          (Am²)    
+499.3478E-03,+2.638777E-06
+494.5654E-03,+2.640882E-06
+489.4633E-03,+2.641705E-06
+484.5462E-03,+2.638052E-06
+479.4117E-03,+2.638445E-06
+474.4961E-03,+2.641438E-06
+469.5866E-03,+2.641641E-06
+464.4477E-03,+2.646555E-06
+459.5490E-03,+2.643007E-06
+454.3954E-03,+2.640553E-06
+449.4961E-03,+2.642119E-06
+444.6031E-03,+2.642575E-06
+439.4594E-03,+2.647326E-06
+434.5478E-03,+2.646076E-06
+429.6437E-03,+2.646246E-06
+424.5075E-03,+2.649532E-06
+419.5989E-03,+2.647440E-06
+414.4648E-03,+2.643765E-06
+409.5632E-03,+2.647736E-06
+404.6569E-03,+2.649310E-06
+399.5261E-03,+2.643501E-06
+394.6166E-03,+2.645338E-06
+389.4604E-03,+2.648619E-06
+384.5798E-03,+2.647845E-06
+379.6740E-03,+2.646326E-06
+374.5182E-03,+2.643103E-06
+369.6249E-03,+2.648023E-06
+364.4862E-03,+2.643747E-06
+359.5843E-03,+2.643191E-06
+354.6680E-03,+2.647090E-06
+349.5322E-03,+2.642179E-06
+344.6301E-03,+2.642589E-06
+339.7225E-03,+2.647344E-06
+334.5900E-03,+2.646726E-06
+329.7022E-03,+2.644425E-06
+324.5493E-03,+2.640403E-06
+319.6435E-03,+2.644442E-06
+314.7500E-03,+2.638975E-06
+309.5985E-03,+2.631869E-06
+304.7079E-03,+2.633609E-06
+299.5736E-03,+2.636573E-06
+294.6629E-03,+2.635606E-06
+289.7684E-03,+2.630938E-06
+284.6367E-03,+2.625710E-06
+279.7029E-03,+2.629333E-06
+274.5752E-03,+2.626537E-06
+269.6757E-03,+2.620333E-06
+264.7618E-03,+2.625153E-06
+259.6266E-03,+2.619222E-06
+254.7320E-03,+2.615190E-06
+249.8297E-03,+2.618714E-06
+244.6952E-03,+2.615712E-06
+239.7990E-03,+2.607462E-06
+234.6368E-03,+2.600197E-06
+229.7421E-03,+2.597992E-06
+224.8523E-03,+2.593387E-06
+219.7037E-03,+2.589177E-06
+214.7980E-03,+2.583622E-06
+209.6637E-03,+2.580596E-06
+204.7597E-03,+2.569899E-06
+199.8472E-03,+2.568893E-06
+194.7275E-03,+2.559161E-06
+189.8251E-03,+2.553537E-06
+184.6700E-03,+2.539891E-06
+179.7902E-03,+2.525904E-06
+174.8796E-03,+2.514348E-06
+169.7301E-03,+2.502646E-06
+164.8298E-03,+2.489608E-06
+159.7010E-03,+2.471165E-06
+154.7834E-03,+2.458082E-06
+149.8781E-03,+2.440509E-06
+144.7392E-03,+2.414895E-06
+139.8328E-03,+2.389286E-06
+134.9366E-03,+2.366332E-06
+129.8049E-03,+2.339735E-06
+124.9095E-03,+2.311083E-06
+119.7690E-03,+2.279849E-06
+114.8640E-03,+2.239584E-06
+109.9680E-03,+2.188803E-06
+104.8193E-03,+2.152968E-06
+99.92106E-03,+2.100517E-06
+94.79151E-03,+2.049921E-06
+89.87935E-03,+1.987430E-06
+84.98375E-03,+1.931894E-06
+79.85168E-03,+1.857032E-06
+74.92136E-03,+1.790558E-06
+69.79203E-03,+1.710820E-06
+64.89560E-03,+1.627771E-06
+59.99877E-03,+1.553253E-06
+54.84843E-03,+1.456545E-06
+49.94849E-03,+1.356385E-06
+45.04054E-03,+1.260150E-06
+39.90623E-03,+1.151116E-06
+35.01858E-03,+1.049786E-06
+29.85590E-03,+923.8805E-09
+24.96221E-03,+810.7098E-09
+20.06471E-03,+678.6773E-09
+14.91517E-03,+555.1490E-09
+10.03645E-03,+413.7038E-09
+4.896937E-03,+279.2789E-09
-13.56396E-06,+126.6335E-09
-4.887048E-03,-7.383869E-09
-10.02377E-03,-175.1066E-09
-14.91304E-03,-311.6400E-09
-20.06527E-03,-466.6504E-09
-24.95824E-03,-618.0319E-09
-29.87106E-03,-751.5536E-09
-35.02339E-03,-902.2584E-09
-39.91347E-03,-1.014890E-06
-45.05337E-03,-1.146478E-06
-49.94526E-03,-1.263917E-06
-54.85433E-03,-1.377662E-06
-59.99100E-03,-1.471647E-06
-64.88737E-03,-1.568664E-06
-69.79340E-03,-1.651552E-06
-74.92755E-03,-1.736734E-06
-79.84316E-03,-1.820698E-06
-84.97460E-03,-1.905898E-06
-89.87004E-03,-1.956212E-06
-94.78507E-03,-2.026094E-06
-99.91836E-03,-2.072814E-06
-104.8274E-03,-2.130086E-06
-109.9650E-03,-2.167624E-06
-114.8686E-03,-2.214801E-06
-119.7502E-03,-2.249133E-06
-124.8856E-03,-2.293454E-06
-129.8036E-03,-2.332423E-06
-134.9329E-03,-2.350737E-06
-139.8242E-03,-2.373814E-06
-144.7384E-03,-2.411786E-06
-149.8795E-03,-2.429094E-06
-154.7782E-03,-2.443782E-06
-159.6978E-03,-2.470462E-06
-164.8270E-03,-2.479501E-06
-169.7215E-03,-2.509966E-06
-174.8778E-03,-2.507862E-06
-179.7776E-03,-2.525232E-06
-184.6723E-03,-2.529302E-06
-189.8179E-03,-2.533479E-06
-194.6978E-03,-2.565638E-06
-199.8411E-03,-2.548390E-06
-204.7601E-03,-2.560805E-06
-209.6489E-03,-2.579292E-06
-214.7875E-03,-2.581804E-06
-219.6994E-03,-2.578822E-06
-224.8389E-03,-2.593446E-06
-229.7289E-03,-2.592965E-06
-234.6382E-03,-2.605732E-06
-239.7769E-03,-2.600304E-06
-244.6791E-03,-2.604704E-06
-249.8132E-03,-2.606154E-06
-254.7119E-03,-2.601757E-06
-259.6108E-03,-2.626470E-06
-264.7583E-03,-2.609008E-06
-269.6524E-03,-2.617648E-06
-274.5457E-03,-2.626555E-06
-279.6923E-03,-2.626662E-06
-284.6031E-03,-2.629897E-06
-289.7466E-03,-2.620472E-06
-294.6263E-03,-2.632559E-06
-299.5356E-03,-2.635443E-06
-304.6746E-03,-2.632975E-06
-309.5818E-03,-2.636532E-06
-314.7329E-03,-2.642444E-06
-319.6214E-03,-2.630653E-06
-324.5116E-03,-2.634120E-06
-329.6518E-03,-2.641663E-06
-334.5704E-03,-2.638346E-06
-339.6924E-03,-2.640149E-06
-344.5921E-03,-2.639659E-06
-349.4997E-03,-2.636986E-06
-354.6368E-03,-2.639956E-06
-359.5435E-03,-2.646914E-06
-364.4511E-03,-2.638770E-06
-369.5864E-03,-2.644236E-06
-374.4825E-03,-2.640069E-06
-379.6274E-03,-2.643648E-06
-384.5241E-03,-2.636058E-06
-389.4169E-03,-2.642629E-06
-394.5789E-03,-2.644742E-06
-399.4645E-03,-2.641636E-06
-404.5925E-03,-2.640989E-06
-409.5114E-03,-2.644423E-06
-414.4080E-03,-2.646897E-06
-419.5311E-03,-2.643546E-06
-424.4374E-03,-2.639539E-06
-429.5759E-03,-2.646463E-06
-434.4766E-03,-2.643132E-06
-439.3807E-03,-2.642170E-06
-444.5196E-03,-2.638285E-06
-449.4103E-03,-2.642083E-06
-454.3117E-03,-2.640759E-06
-459.4662E-03,-2.644546E-06
-464.3573E-03,-2.640351E-06
-469.4988E-03,-2.640030E-06
-474.4039E-03,-2.640738E-06
-479.3188E-03,-2.637521E-06
-484.4356E-03,-2.638950E-06
-489.3552E-03,-2.636242E-06
-494.4910E-03,-2.636528E-06
-499.4504E-03,-2.630639E-06

-499.4586E-03,-2.637438E-06
-494.6816E-03,-2.634315E-06
-489.5751E-03,-2.639107E-06
-484.6636E-03,-2.638668E-06
-479.5279E-03,-2.641230E-06
-474.6203E-03,-2.646962E-06
-469.7052E-03,-2.640183E-06
-464.5543E-03,-2.636981E-06
-459.6578E-03,-2.639745E-06
-454.5119E-03,-2.640964E-06
-449.6095E-03,-2.641563E-06
-444.7101E-03,-2.639079E-06
-439.5635E-03,-2.638850E-06
-434.6476E-03,-2.638581E-06
-429.7535E-03,-2.643430E-06
-424.6098E-03,-2.645580E-06
-419.7047E-03,-2.637034E-06
-414.5763E-03,-2.640027E-06
-409.6666E-03,-2.644480E-06
-404.7569E-03,-2.638493E-06
-399.6182E-03,-2.638080E-06
-394.7322E-03,-2.644528E-06
-389.5767E-03,-2.643856E-06
-384.6700E-03,-2.642994E-06
-379.7737E-03,-2.643073E-06
-374.6205E-03,-2.638094E-06
-369.7275E-03,-2.643375E-06
-364.5923E-03,-2.641521E-06
-359.6867E-03,-2.643866E-06
-354.7857E-03,-2.642134E-06
-349.6395E-03,-2.640057E-06
-344.7258E-03,-2.636360E-06
-339.8305E-03,-2.636963E-06
-334.7059E-03,-2.636742E-06
-329.7992E-03,-2.638548E-06
-324.6487E-03,-2.638979E-06
-319.7567E-03,-2.636618E-06
-314.8628E-03,-2.636431E-06
-309.7179E-03,-2.638286E-06
-304.8116E-03,-2.634257E-06
-299.6702E-03,-2.630509E-06
-294.7495E-03,-2.621782E-06
-289.8763E-03,-2.629649E-06
-284.7349E-03,-2.621877E-06
-279.8114E-03,-2.624459E-06
-274.6661E-03,-2.623989E-06
-269.7766E-03,-2.623065E-06
-264.8767E-03,-2.622933E-06
-259.7305E-03,-2.618456E-06
-254.8378E-03,-2.614816E-06
-249.9327E-03,-2.607630E-06
-244.7956E-03,-2.609268E-06
-239.9019E-03,-2.604425E-06
-234.7648E-03,-2.597445E-06
-229.8623E-03,-2.594726E-06
-224.9536E-03,-2.591613E-06
-219.8153E-03,-2.588710E-06
-214.9058E-03,-2.579154E-06
-209.7700E-03,-2.572683E-06
-204.8707E-03,-2.568063E-06
-199.9560E-03,-2.562515E-06
-194.8205E-03,-2.553644E-06
-189.9310E-03,-2.544431E-06
-184.7957E-03,-2.530898E-06
-179.8844E-03,-2.523247E-06
-174.9890E-03,-2.504046E-06
-169.8366E-03,-2.500069E-06
-164.9406E-03,-2.488598E-06
-159.8037E-03,-2.468634E-06
-154.8817E-03,-2.455323E-06
-149.9853E-03,-2.439211E-06
-144.8560E-03,-2.416215E-06
-139.9493E-03,-2.385366E-06
-135.0364E-03,-2.362386E-06
-129.9120E-03,-2.340024E-06
-125.0028E-03,-2.304121E-06
-119.8598E-03,-2.264647E-06
-114.9633E-03,-2.229603E-06
-110.0700E-03,-2.191285E-06
-104.9241E-03,-2.140795E-06
-100.0327E-03,-2.096472E-06
-94.88454E-03,-2.045492E-06
-89.97083E-03,-1.983808E-06
-85.08050E-03,-1.925592E-06
-79.94236E-03,-1.854722E-06
-75.02608E-03,-1.784716E-06
-69.89709E-03,-1.713505E-06
-64.99707E-03,-1.626665E-06
-60.10035E-03,-1.547702E-06
-54.96641E-03,-1.446480E-06
-50.04750E-03,-1.349987E-06
-45.15833E-03,-1.256680E-06
-40.01739E-03,-1.140391E-06
-35.12081E-03,-1.038280E-06
-29.97046E-03,-920.9027E-09
-25.05924E-03,-795.8832E-09
-20.17186E-03,-670.7909E-09
-15.02116E-03,-537.0724E-09
-10.12687E-03,-407.1798E-09
-4.984301E-03,-268.1707E-09
-111.3445E-06,-126.5690E-09
+4.798714E-03,+31.65406E-09
+9.931724E-03,+180.5228E-09
+14.81183E-03,+332.5052E-09
+19.95726E-03,+492.6594E-09
+24.85382E-03,+636.9999E-09
+29.74175E-03,+763.8725E-09
+34.90750E-03,+917.9908E-09
+39.81454E-03,+1.033881E-06
+44.94463E-03,+1.163842E-06
+49.84150E-03,+1.271153E-06
+54.75379E-03,+1.375887E-06
+59.88079E-03,+1.484963E-06
+64.79060E-03,+1.575494E-06
+69.69009E-03,+1.662000E-06
+74.81935E-03,+1.744075E-06
+79.75178E-03,+1.827237E-06
+84.87578E-03,+1.899705E-06
+89.77204E-03,+1.962407E-06
+94.67932E-03,+2.019861E-06
+99.82143E-03,+2.086752E-06
+104.7152E-03,+2.126860E-06
+109.8620E-03,+2.172211E-06
+114.7586E-03,+2.214055E-06
+119.6497E-03,+2.264001E-06
+124.7936E-03,+2.301655E-06
+129.7038E-03,+2.326407E-06
+134.8400E-03,+2.363392E-06
+139.7287E-03,+2.392045E-06
+144.6318E-03,+2.415280E-06
+149.7701E-03,+2.437495E-06
+154.6667E-03,+2.454306E-06
+159.5871E-03,+2.471877E-06
+164.7279E-03,+2.490841E-06
+169.6114E-03,+2.496269E-06
+174.7586E-03,+2.517785E-06
+179.6668E-03,+2.522216E-06
+184.5540E-03,+2.538199E-06
+189.7095E-03,+2.542625E-06
+194.6118E-03,+2.554964E-06
+199.7405E-03,+2.575034E-06
+204.6515E-03,+2.571567E-06
+209.5472E-03,+2.581628E-06
+214.6823E-03,+2.575476E-06
+219.5884E-03,+2.581971E-06
+224.7237E-03,+2.590905E-06
+229.6283E-03,+2.594529E-06
+234.5192E-03,+2.601100E-06
+239.6744E-03,+2.618843E-06
+244.5774E-03,+2.599817E-06
+249.7209E-03,+2.614802E-06
+254.6158E-03,+2.623319E-06
+259.5083E-03,+2.612198E-06
+264.6492E-03,+2.623502E-06
+269.5455E-03,+2.625131E-06
+274.4472E-03,+2.628486E-06
+279.5716E-03,+2.630646E-06
+284.5061E-03,+2.634509E-06
+289.6372E-03,+2.636496E-06
+294.5231E-03,+2.632007E-06
+299.4421E-03,+2.634247E-06
+304.5758E-03,+2.631605E-06
+309.4658E-03,+2.637535E-06
+314.6079E-03,+2.634888E-06
+319.5134E-03,+2.637332E-06
+324.4097E-03,+2.634917E-06
+329.5608E-03,+2.640175E-06
+334.4541E-03,+2.643848E-06
+339.5858E-03,+2.642575E-06
+344.4931E-03,+2.645874E-06
+349.3964E-03,+2.642510E-06
+354.5313E-03,+2.640902E-06
+359.4383E-03,+2.638839E-06
+364.3462E-03,+2.650436E-06
+369.4755E-03,+2.646516E-06
+374.3607E-03,+2.649361E-06
+379.5187E-03,+2.642311E-06
+384.4251E-03,+2.641100E-06
+389.3009E-03,+2.650601E-06
+394.4549E-03,+2.647813E-06
+399.3691E-03,+2.646163E-06
+404.5004E-03,+2.635982E-06
+409.3980E-03,+2.646260E-06
+414.2953E-03,+2.650938E-06
+419.4314E-03,+2.644270E-06
+424.3328E-03,+2.641632E-06
+429.4661E-03,+2.644544E-06
+434.3741E-03,+2.646422E-06
+439.2703E-03,+2.646012E-06
+444.4202E-03,+2.644696E-06
+449.3018E-03,+2.638902E-06
+454.2069E-03,+2.644935E-06
+459.3487E-03,+2.645601E-06
+464.2474E-03,+2.641608E-06
+469.3755E-03,+2.639511E-06
+474.2835E-03,+2.638202E-06
+479.1809E-03,+2.639872E-06
+484.3175E-03,+2.645170E-06
+489.2252E-03,+2.637733E-06
+494.3649E-03,+2.641481E-06
+499.3391E-03,+2.642716E-06

MicroMag 2900/3900 Data File ends
