MicroMag 2900/3900 Data File (Series 0016.002)
Direct moment vs. field; Hysteresis loop

INSTRUMENT
Configuration                   VSM
Temperature control             None
Hardware version                0004
Software version                06/08/2012
Units of measure                Hybrid SI
Temperature in                  Kelvin

SAMPLE
Mass                            N/A
Volume                          N/A
Demagnetizing factor            N/A

SETTINGS
Field range                    +1.000000E+00
Field (command)                 N/A
Moment range                   +5.000000E-06
Averaging time                 +200.0000E-03
Temperature (command)           N/A
Tmprtr difference correction    No
Orientation                     0.000000E+00
Vibration amplitude             1.0
Calibration factor             +3.570920E+00
Operating frequency            +83.00000E+00
Sweep mode                      Continuous
Pause after sweep increment    +300.0000E-03

MEASUREMENT
Description                    "DQ15-33B1"
Field (measured)                N/A
Temperature (measured)          N/A
Averages (completed)            1
Measured on                     10/29/2016  14:42
Elapsed time                   +84.28249E+00

PROCESSING
Background subtraction          No
Delta-m processing              N/A
Demagnetizing factor            No
Normalization                   No
Normalization factor            N/A
Offset (field)                  No
Offset (moment)                 No
Pole saturation                 No
Slope correction                No

VIEWPORT
Left                           -500.0000E-03
Right                          +500.0000E-03
Bottom                         -5.000000E-06
Top                            +5.000000E-06
Show X-axis?                    Yes
Show Y-axis?                    Yes

CHARACTERIZATION
Initial slope                   N/A
Saturation                     +2.613643E-06
Remanence                      +128.5103E-09
Coercivity                     +4.220249E-03
S*                             +32.60751E-03

SCRIPT
Averages (target)               1
Averaging time                 +200.0000E-03
Demagnetize?                    No
Maximum field                  +500.0000E-03
Field increment                +5.000000E-03
Hysteresis loop?                Yes
Initial magnetization?          No
Pause                          +1.000000E+00
Saturate before measuring?      No
Number of segments              2
Number of data                  402

Segment   Averaging      Initial        Field         Final                    Final 
 Number      Time         Field       Increment       Field         Pause      Index 
             (s)           (T)           (T)           (T)           (s)     
0000001,+200.0000E-03,+500.0000E-03,+5.000000E-03,-500.0000E-03,+1.000000E+00,0000201
0000002,+200.0000E-03,-500.0000E-03,+5.000000E-03,+500.0000E-03,+1.000000E+00,0000402

                           
    Field         Moment   
     (T)          (Am²)    
+499.3694E-03,+2.615185E-06
+494.6409E-03,+2.614521E-06
+489.6795E-03,+2.613608E-06
+484.7094E-03,+2.619515E-06
+479.7723E-03,+2.620719E-06
+474.7267E-03,+2.614927E-06
+469.7054E-03,+2.622445E-06
+464.7652E-03,+2.621139E-06
+459.7815E-03,+2.618985E-06
+454.7830E-03,+2.628798E-06
+449.7491E-03,+2.619030E-06
+444.7961E-03,+2.627806E-06
+439.7629E-03,+2.622851E-06
+434.7567E-03,+2.625098E-06
+429.7406E-03,+2.621274E-06
+424.7054E-03,+2.622251E-06
+419.7464E-03,+2.627152E-06
+414.7625E-03,+2.618930E-06
+409.7438E-03,+2.624284E-06
+404.7611E-03,+2.619159E-06
+399.7487E-03,+2.628746E-06
+394.7481E-03,+2.628346E-06
+389.7343E-03,+2.636282E-06
+384.7006E-03,+2.634324E-06
+379.7069E-03,+2.617873E-06
+374.7117E-03,+2.613453E-06
+369.7522E-03,+2.631669E-06
+364.7665E-03,+2.627591E-06
+359.7634E-03,+2.628894E-06
+354.6943E-03,+2.627314E-06
+349.7637E-03,+2.622691E-06
+344.7607E-03,+2.629669E-06
+339.7793E-03,+2.624442E-06
+334.7844E-03,+2.618544E-06
+329.8162E-03,+2.616630E-06
+324.7279E-03,+2.626284E-06
+319.7798E-03,+2.624003E-06
+314.6906E-03,+2.610121E-06
+309.8192E-03,+2.619843E-06
+304.8267E-03,+2.617079E-06
+299.8177E-03,+2.617228E-06
+294.8111E-03,+2.609021E-06
+289.7990E-03,+2.598812E-06
+284.8310E-03,+2.599998E-06
+279.8154E-03,+2.597873E-06
+274.7778E-03,+2.602364E-06
+269.7994E-03,+2.599233E-06
+264.8062E-03,+2.592674E-06
+259.8352E-03,+2.599393E-06
+254.8499E-03,+2.593518E-06
+249.8302E-03,+2.609418E-06
+244.8426E-03,+2.603490E-06
+239.8124E-03,+2.598686E-06
+234.8740E-03,+2.585201E-06
+229.8743E-03,+2.584729E-06
+224.8675E-03,+2.586523E-06
+219.8701E-03,+2.588889E-06
+214.9193E-03,+2.559593E-06
+209.8847E-03,+2.548044E-06
+204.8759E-03,+2.536539E-06
+199.8746E-03,+2.541360E-06
+194.8860E-03,+2.524622E-06
+189.8896E-03,+2.530332E-06
+184.8702E-03,+2.523535E-06
+179.9066E-03,+2.505649E-06
+174.8920E-03,+2.501831E-06
+169.8800E-03,+2.465767E-06
+164.9087E-03,+2.447773E-06
+159.9386E-03,+2.431047E-06
+154.8653E-03,+2.429527E-06
+149.9427E-03,+2.398898E-06
+144.8946E-03,+2.400555E-06
+139.9275E-03,+2.380258E-06
+134.9486E-03,+2.375683E-06
+130.0083E-03,+2.291956E-06
+124.9109E-03,+2.287861E-06
+119.9615E-03,+2.294235E-06
+114.9557E-03,+2.236117E-06
+110.1030E-03,+2.214600E-06
+104.9754E-03,+2.115439E-06
+100.0639E-03,+2.107648E-06
+94.97276E-03,+2.035224E-06
+89.97068E-03,+1.962323E-06
+85.00630E-03,+1.907156E-06
+79.99923E-03,+1.833873E-06
+74.97973E-03,+1.768494E-06
+70.07618E-03,+1.707082E-06
+64.98445E-03,+1.591040E-06
+60.26209E-03,+1.572939E-06
+54.59205E-03,+1.442524E-06
+50.03373E-03,+1.334860E-06
+45.05390E-03,+1.281720E-06
+40.08436E-03,+1.166775E-06
+35.05352E-03,+1.055660E-06
+30.04052E-03,+944.2131E-09
+25.04297E-03,+765.6289E-09
+20.07400E-03,+641.4317E-09
+15.05406E-03,+546.6401E-09
+10.06475E-03,+439.5184E-09
+5.100509E-03,+251.4184E-09
+86.46888E-06,+97.27586E-09
-4.877851E-03,-49.07145E-09
-9.874854E-03,-151.4155E-09
-14.85966E-03,-341.9481E-09
-19.80174E-03,-496.4423E-09
-24.86248E-03,-629.2905E-09
-29.85614E-03,-763.7731E-09
-34.87943E-03,-905.5138E-09
-39.84563E-03,-1.050119E-06
-44.80178E-03,-1.155318E-06
-49.85676E-03,-1.317825E-06
-54.83500E-03,-1.382996E-06
-59.83062E-03,-1.486663E-06
-64.78640E-03,-1.589534E-06
-69.80202E-03,-1.656923E-06
-74.76658E-03,-1.729211E-06
-79.78177E-03,-1.802998E-06
-84.79488E-03,-1.858265E-06
-89.76321E-03,-2.014214E-06
-94.76583E-03,-2.005758E-06
-99.77740E-03,-2.046012E-06
-104.7797E-03,-2.092293E-06
-109.7556E-03,-2.158866E-06
-114.7655E-03,-2.226696E-06
-119.7432E-03,-2.228648E-06
-124.7282E-03,-2.245298E-06
-129.7234E-03,-2.312331E-06
-134.7720E-03,-2.342763E-06
-139.7175E-03,-2.388693E-06
-144.7035E-03,-2.435649E-06
-149.6918E-03,-2.408257E-06
-154.7015E-03,-2.432639E-06
-159.6444E-03,-2.448433E-06
-164.6966E-03,-2.452413E-06
-169.6953E-03,-2.485729E-06
-174.6899E-03,-2.495626E-06
-179.6810E-03,-2.477153E-06
-184.7081E-03,-2.500759E-06
-189.6438E-03,-2.578213E-06
-194.6266E-03,-2.567901E-06
-199.6499E-03,-2.539605E-06
-204.6448E-03,-2.566391E-06
-209.6401E-03,-2.576235E-06
-214.6272E-03,-2.588444E-06
-219.6510E-03,-2.573096E-06
-224.6174E-03,-2.574364E-06
-229.6085E-03,-2.552674E-06
-234.6068E-03,-2.559282E-06
-239.6112E-03,-2.576602E-06
-244.5855E-03,-2.589918E-06
-249.6570E-03,-2.593549E-06
-254.5953E-03,-2.570167E-06
-259.5696E-03,-2.591019E-06
-264.5624E-03,-2.601372E-06
-269.5208E-03,-2.598861E-06
-274.4887E-03,-2.612280E-06
-279.5416E-03,-2.594850E-06
-284.5457E-03,-2.605969E-06
-289.5379E-03,-2.622673E-06
-294.5393E-03,-2.636564E-06
-299.5388E-03,-2.626971E-06
-304.5086E-03,-2.603421E-06
-309.5058E-03,-2.626221E-06
-314.5041E-03,-2.626418E-06
-319.4937E-03,-2.576141E-06
-324.4759E-03,-2.586703E-06
-329.4783E-03,-2.600557E-06
-334.5179E-03,-2.623497E-06
-339.4659E-03,-2.614022E-06
-344.4591E-03,-2.596820E-06
-349.4495E-03,-2.608455E-06
-354.4351E-03,-2.598134E-06
-359.4322E-03,-2.588363E-06
-364.4804E-03,-2.638628E-06
-369.4314E-03,-2.623574E-06
-374.4297E-03,-2.623163E-06
-379.4703E-03,-2.636796E-06
-384.4146E-03,-2.631029E-06
-389.4040E-03,-2.609986E-06
-394.3917E-03,-2.626309E-06
-399.3979E-03,-2.613927E-06
-404.3852E-03,-2.619989E-06
-409.3672E-03,-2.637495E-06
-414.3513E-03,-2.619890E-06
-419.3950E-03,-2.614706E-06
-424.3844E-03,-2.617531E-06
-429.4476E-03,-2.616290E-06
-434.4313E-03,-2.635606E-06
-439.3322E-03,-2.619585E-06
-444.2624E-03,-2.626832E-06
-449.7381E-03,-2.627031E-06
-454.3089E-03,-2.613549E-06
-459.2977E-03,-2.610497E-06
-464.2847E-03,-2.606651E-06
-469.2907E-03,-2.617414E-06
-474.4738E-03,-2.596134E-06
-478.5312E-03,-2.606553E-06
-484.0553E-03,-2.613979E-06
-489.2742E-03,-2.612154E-06
-494.3975E-03,-2.620683E-06
-499.4597E-03,-2.614366E-06

-499.4662E-03,-2.616505E-06
-494.7373E-03,-2.613651E-06
-489.7740E-03,-2.612402E-06
-484.8348E-03,-2.614234E-06
-479.9444E-03,-2.614354E-06
-474.8680E-03,-2.616832E-06
-469.8548E-03,-2.620094E-06
-464.8706E-03,-2.615561E-06
-459.8717E-03,-2.617369E-06
-454.8571E-03,-2.620929E-06
-449.8553E-03,-2.620822E-06
-444.8577E-03,-2.621760E-06
-439.8626E-03,-2.617338E-06
-434.8465E-03,-2.625996E-06
-429.8479E-03,-2.623462E-06
-424.8341E-03,-2.620280E-06
-419.7896E-03,-2.622050E-06
-414.8524E-03,-2.619888E-06
-409.8391E-03,-2.623928E-06
-404.8598E-03,-2.632438E-06
-399.8564E-03,-2.614512E-06
-394.9405E-03,-2.625070E-06
-389.8607E-03,-2.614556E-06
-384.8512E-03,-2.625257E-06
-379.8615E-03,-2.622568E-06
-374.8375E-03,-2.615931E-06
-369.8961E-03,-2.615246E-06
-364.8816E-03,-2.626389E-06
-359.8551E-03,-2.614945E-06
-354.8700E-03,-2.618544E-06
-349.8546E-03,-2.610491E-06
-344.8498E-03,-2.624374E-06
-339.8691E-03,-2.604487E-06
-334.8433E-03,-2.612678E-06
-329.8754E-03,-2.603307E-06
-324.8817E-03,-2.602453E-06
-319.9090E-03,-2.612047E-06
-314.9064E-03,-2.604630E-06
-309.9500E-03,-2.610661E-06
-304.9156E-03,-2.614210E-06
-299.9014E-03,-2.617429E-06
-294.8961E-03,-2.605400E-06
-289.9279E-03,-2.602627E-06
-284.9241E-03,-2.609201E-06
-279.9062E-03,-2.592795E-06
-274.9056E-03,-2.592607E-06
-269.9366E-03,-2.606144E-06
-264.9272E-03,-2.594653E-06
-259.9315E-03,-2.581325E-06
-254.9327E-03,-2.579456E-06
-249.8923E-03,-2.592247E-06
-244.9523E-03,-2.579754E-06
-239.9449E-03,-2.587273E-06
-234.9575E-03,-2.581886E-06
-229.9729E-03,-2.585929E-06
-224.9747E-03,-2.586426E-06
-219.9768E-03,-2.563111E-06
-214.9909E-03,-2.545522E-06
-209.9593E-03,-2.557758E-06
-204.9810E-03,-2.532956E-06
-199.9629E-03,-2.521077E-06
-194.9514E-03,-2.538974E-06
-190.0000E-03,-2.521884E-06
-184.9684E-03,-2.501119E-06
-179.9943E-03,-2.510408E-06
-175.0013E-03,-2.501647E-06
-170.0702E-03,-2.474461E-06
-165.0215E-03,-2.450471E-06
-160.0212E-03,-2.447656E-06
-155.0297E-03,-2.411506E-06
-150.0161E-03,-2.404690E-06
-145.0289E-03,-2.404644E-06
-140.0561E-03,-2.368584E-06
-135.0399E-03,-2.331227E-06
-130.0423E-03,-2.288237E-06
-125.0247E-03,-2.289607E-06
-120.0850E-03,-2.243054E-06
-115.0636E-03,-2.224178E-06
-109.9920E-03,-2.165545E-06
-105.0593E-03,-2.127098E-06
-100.1080E-03,-2.073954E-06
-95.03892E-03,-2.031252E-06
-90.06369E-03,-1.907905E-06
-85.12534E-03,-1.881144E-06
-80.26469E-03,-1.879326E-06
-75.25018E-03,-1.729671E-06
-70.01132E-03,-1.665318E-06
-65.14610E-03,-1.623411E-06
-60.08497E-03,-1.527972E-06
-55.10588E-03,-1.475637E-06
-50.08255E-03,-1.350106E-06
-45.12936E-03,-1.221700E-06
-40.12811E-03,-1.136126E-06
-35.13413E-03,-980.3964E-09
-30.13332E-03,-891.7100E-09
-25.12866E-03,-782.2397E-09
-20.09436E-03,-676.3057E-09
-15.14534E-03,-534.2899E-09
-10.14739E-03,-412.3107E-09
-5.155962E-03,-267.8178E-09
-168.9230E-06,-167.5042E-09
+4.781750E-03,-14.80397E-09
+9.801999E-03,+152.0289E-09
+14.77523E-03,+299.4742E-09
+19.76230E-03,+470.5270E-09
+24.76819E-03,+629.0714E-09
+29.74575E-03,+733.5615E-09
+34.78076E-03,+940.3203E-09
+39.74845E-03,+991.2872E-09
+44.74816E-03,+1.170707E-06
+49.74182E-03,+1.279046E-06
+54.73583E-03,+1.379362E-06
+59.73024E-03,+1.486360E-06
+64.75954E-03,+1.579191E-06
+69.72330E-03,+1.630479E-06
+74.71900E-03,+1.718328E-06
+79.67512E-03,+1.782261E-06
+84.70733E-03,+1.847199E-06
+89.62857E-03,+2.010202E-06
+94.70535E-03,+1.999048E-06
+99.69386E-03,+2.069724E-06
+104.6785E-03,+2.183149E-06
+109.6821E-03,+2.197998E-06
+114.6523E-03,+2.219443E-06
+119.6527E-03,+2.215125E-06
+124.6630E-03,+2.286474E-06
+129.5369E-03,+2.312331E-06
+134.6374E-03,+2.315307E-06
+139.6226E-03,+2.359508E-06
+144.6213E-03,+2.390802E-06
+149.6355E-03,+2.364123E-06
+154.6214E-03,+2.453662E-06
+159.6173E-03,+2.450799E-06
+164.6082E-03,+2.456638E-06
+169.6022E-03,+2.499338E-06
+174.6047E-03,+2.478662E-06
+179.6140E-03,+2.470468E-06
+184.6028E-03,+2.500492E-06
+189.5709E-03,+2.483540E-06
+194.5710E-03,+2.543365E-06
+199.5730E-03,+2.616020E-06
+204.4989E-03,+2.545961E-06
+209.5484E-03,+2.575835E-06
+214.5184E-03,+2.563481E-06
+219.5547E-03,+2.577174E-06
+224.5534E-03,+2.564208E-06
+229.5331E-03,+2.578772E-06
+234.5364E-03,+2.618860E-06
+239.5034E-03,+2.593795E-06
+244.5131E-03,+2.590489E-06
+249.5180E-03,+2.604102E-06
+254.4844E-03,+2.640838E-06
+259.4764E-03,+2.614630E-06
+264.5278E-03,+2.620825E-06
+269.4765E-03,+2.611991E-06
+274.4371E-03,+2.617505E-06
+279.4832E-03,+2.617979E-06
+284.4791E-03,+2.582924E-06
+289.3662E-03,+2.622159E-06
+294.4453E-03,+2.597419E-06
+299.4543E-03,+2.597949E-06
+304.4362E-03,+2.629962E-06
+309.4250E-03,+2.605382E-06
+314.4257E-03,+2.623661E-06
+319.3921E-03,+2.620487E-06
+324.4032E-03,+2.622338E-06
+329.4029E-03,+2.602083E-06
+334.3962E-03,+2.633949E-06
+339.3010E-03,+2.616787E-06
+344.3812E-03,+2.623157E-06
+349.3496E-03,+2.622052E-06
+354.3580E-03,+2.620133E-06
+359.3467E-03,+2.612340E-06
+364.3396E-03,+2.633074E-06
+369.3557E-03,+2.613664E-06
+374.3534E-03,+2.632630E-06
+379.3103E-03,+2.640225E-06
+384.3132E-03,+2.610300E-06
+389.3652E-03,+2.621293E-06
+394.2992E-03,+2.651067E-06
+399.2946E-03,+2.627083E-06
+404.2473E-03,+2.638054E-06
+409.2897E-03,+2.645075E-06
+414.2614E-03,+2.631048E-06
+419.2611E-03,+2.622158E-06
+424.2690E-03,+2.611278E-06
+429.2351E-03,+2.600329E-06
+434.2315E-03,+2.642553E-06
+439.2385E-03,+2.601475E-06
+444.2285E-03,+2.628821E-06
+449.2233E-03,+2.614158E-06
+454.2009E-03,+2.624293E-06
+459.2077E-03,+2.625692E-06
+464.2279E-03,+2.612893E-06
+469.1577E-03,+2.616755E-06
+474.1743E-03,+2.626680E-06
+479.1496E-03,+2.630074E-06
+484.1722E-03,+2.620485E-06
+489.1074E-03,+2.614788E-06
+494.1329E-03,+2.634152E-06
+499.3640E-03,+2.622573E-06

MicroMag 2900/3900 Data File ends
