MicroMag 2900/3900 Data File (Series 0016.002)
Direct moment vs. field; Hysteresis loop

INSTRUMENT
Configuration                   VSM
Temperature control             None
Hardware version                0004
Software version                06/08/2012
Units of measure                Hybrid SI
Temperature in                  Kelvin

SAMPLE
Mass                            N/A
Volume                          N/A
Demagnetizing factor            N/A

SETTINGS
Field range                    +1.000000E+00
Field (command)                 N/A
Moment range                   +5.000000E-06
Averaging time                 +200.0000E-03
Temperature (command)           N/A
Tmprtr difference correction    No
Orientation                     0.000000E+00
Vibration amplitude             1.0
Calibration factor             +3.570920E+00
Operating frequency            +83.00000E+00
Sweep mode                      Discrete
Pause after sweep increment    +300.0000E-03

MEASUREMENT
Description                    "DQ15-33B1"
Field (measured)                N/A
Temperature (measured)          N/A
Averages (completed)            1
Measured on                     10/29/2016  15:36
Elapsed time                   +206.9868E+00

PROCESSING
Background subtraction          No
Delta-m processing              N/A
Demagnetizing factor            No
Normalization                   No
Normalization factor            N/A
Offset (field)                  No
Offset (moment)                 No
Pole saturation                 No
Slope correction                No

VIEWPORT
Left                           -500.0000E-03
Right                          +500.0000E-03
Bottom                         -5.000000E-06
Top                            +5.000000E-06
Show X-axis?                    Yes
Show Y-axis?                    Yes

CHARACTERIZATION
Initial slope                   N/A
Saturation                     +2.629581E-06
Remanence                      +127.1315E-09
Coercivity                     +4.256445E-03
S*                             +4.166085E-03

SCRIPT
Averages (target)               1
Averaging time                 +200.0000E-03
Demagnetize?                    No
Maximum field                  +500.0000E-03
Field increment                +5.000000E-03
Hysteresis loop?                Yes
Initial magnetization?          No
Pause                          +1.000000E+00
Saturate before measuring?      No
Number of segments              2
Number of data                  402

Segment   Averaging      Initial        Field         Final                    Final 
 Number      Time         Field       Increment       Field         Pause      Index 
             (s)           (T)           (T)           (T)           (s)     
0000001,+200.0000E-03,+500.0000E-03,+5.000000E-03,-500.0000E-03,+1.000000E+00,0000201
0000002,+200.0000E-03,-500.0000E-03,+5.000000E-03,+500.0000E-03,+1.000000E+00,0000402

                           
    Field         Moment   
     (T)          (Am²)    
+499.3445E-03,+2.631002E-06
+494.5836E-03,+2.630955E-06
+489.4803E-03,+2.632412E-06
+484.5585E-03,+2.632325E-06
+479.4106E-03,+2.631632E-06
+474.5049E-03,+2.633078E-06
+469.5837E-03,+2.636420E-06
+464.4589E-03,+2.634945E-06
+459.5533E-03,+2.632341E-06
+454.4044E-03,+2.632645E-06
+449.4962E-03,+2.632968E-06
+444.6060E-03,+2.637062E-06
+439.4638E-03,+2.636286E-06
+434.5567E-03,+2.634965E-06
+429.6496E-03,+2.634959E-06
+424.5113E-03,+2.635190E-06
+419.6127E-03,+2.638397E-06
+414.4703E-03,+2.637949E-06
+409.5577E-03,+2.641583E-06
+404.6562E-03,+2.638129E-06
+399.5108E-03,+2.635936E-06
+394.6148E-03,+2.638917E-06
+389.4645E-03,+2.637785E-06
+384.5763E-03,+2.637246E-06
+379.6729E-03,+2.635558E-06
+374.5203E-03,+2.638129E-06
+369.6205E-03,+2.631620E-06
+364.4933E-03,+2.637689E-06
+359.5927E-03,+2.631759E-06
+354.6764E-03,+2.638943E-06
+349.5356E-03,+2.636086E-06
+344.6345E-03,+2.633567E-06
+339.7355E-03,+2.635423E-06
+334.5933E-03,+2.637046E-06
+329.7014E-03,+2.633627E-06
+324.5485E-03,+2.630497E-06
+319.6565E-03,+2.628248E-06
+314.7570E-03,+2.626527E-06
+309.6041E-03,+2.628386E-06
+304.7108E-03,+2.627276E-06
+299.5668E-03,+2.622355E-06
+294.6639E-03,+2.621423E-06
+289.7809E-03,+2.619087E-06
+284.6434E-03,+2.619141E-06
+279.7175E-03,+2.620546E-06
+274.5811E-03,+2.615022E-06
+269.6817E-03,+2.614901E-06
+264.7663E-03,+2.611326E-06
+259.6346E-03,+2.609822E-06
+254.7288E-03,+2.603816E-06
+249.8345E-03,+2.605193E-06
+244.6868E-03,+2.599662E-06
+239.7873E-03,+2.597655E-06
+234.6432E-03,+2.596738E-06
+229.7475E-03,+2.589410E-06
+224.8516E-03,+2.585037E-06
+219.7056E-03,+2.582343E-06
+214.8061E-03,+2.573786E-06
+209.6695E-03,+2.573730E-06
+204.7705E-03,+2.562137E-06
+199.8526E-03,+2.553678E-06
+194.7292E-03,+2.552818E-06
+189.8350E-03,+2.536239E-06
+184.6716E-03,+2.532752E-06
+179.7968E-03,+2.523592E-06
+174.8797E-03,+2.505018E-06
+169.7284E-03,+2.497667E-06
+164.8338E-03,+2.480120E-06
+159.6938E-03,+2.461615E-06
+154.7814E-03,+2.448910E-06
+149.8817E-03,+2.431075E-06
+144.7440E-03,+2.404748E-06
+139.8323E-03,+2.392087E-06
+134.9443E-03,+2.367446E-06
+129.8124E-03,+2.329762E-06
+124.9090E-03,+2.301284E-06
+119.7642E-03,+2.270694E-06
+114.8620E-03,+2.227887E-06
+109.9640E-03,+2.188534E-06
+104.8158E-03,+2.147500E-06
+99.92143E-03,+2.099430E-06
+94.79998E-03,+2.046301E-06
+89.87538E-03,+1.982640E-06
+84.98295E-03,+1.927199E-06
+79.85587E-03,+1.850085E-06
+74.91925E-03,+1.783793E-06
+69.79581E-03,+1.704144E-06
+64.89872E-03,+1.635232E-06
+59.98724E-03,+1.542163E-06
+54.85268E-03,+1.451911E-06
+49.94882E-03,+1.352877E-06
+45.05112E-03,+1.250605E-06
+39.90979E-03,+1.148580E-06
+35.01910E-03,+1.039698E-06
+29.86088E-03,+927.2264E-09
+24.96500E-03,+808.9364E-09
+20.06512E-03,+677.9264E-09
+14.90518E-03,+552.2359E-09
+10.03524E-03,+422.8099E-09
+4.897136E-03,+276.8113E-09
-12.13617E-06,+130.0584E-09
-4.886792E-03,-8.071829E-09
-10.01991E-03,-168.1563E-09
-14.92353E-03,-327.8840E-09
-20.07734E-03,-482.2791E-09
-24.96753E-03,-618.6510E-09
-29.87239E-03,-762.0362E-09
-35.02829E-03,-896.1528E-09
-39.92023E-03,-1.017006E-06
-45.05295E-03,-1.140183E-06
-49.94871E-03,-1.272289E-06
-54.85641E-03,-1.371277E-06
-59.99881E-03,-1.477620E-06
-64.89112E-03,-1.565812E-06
-69.79094E-03,-1.639763E-06
-74.91849E-03,-1.731898E-06
-79.84122E-03,-1.811623E-06
-84.98327E-03,-1.882373E-06
-89.87064E-03,-1.951154E-06
-94.78715E-03,-2.025361E-06
-99.93061E-03,-2.061213E-06
-104.8271E-03,-2.113629E-06
-109.9629E-03,-2.163807E-06
-114.8701E-03,-2.217801E-06
-119.7583E-03,-2.250452E-06
-124.8955E-03,-2.287740E-06
-129.8050E-03,-2.317323E-06
-134.9312E-03,-2.345113E-06
-139.8364E-03,-2.372127E-06
-144.7414E-03,-2.400917E-06
-149.8799E-03,-2.419060E-06
-154.7772E-03,-2.444369E-06
-159.6967E-03,-2.453822E-06
-164.8245E-03,-2.479273E-06
-169.7259E-03,-2.489991E-06
-174.8817E-03,-2.497149E-06
-179.7778E-03,-2.511696E-06
-184.6712E-03,-2.526705E-06
-189.8214E-03,-2.533257E-06
-194.7075E-03,-2.540781E-06
-199.8438E-03,-2.545393E-06
-204.7551E-03,-2.558237E-06
-209.6611E-03,-2.563762E-06
-214.7789E-03,-2.563648E-06
-219.7006E-03,-2.574054E-06
-224.8373E-03,-2.583058E-06
-229.7280E-03,-2.587641E-06
-234.6406E-03,-2.589825E-06
-239.7885E-03,-2.598730E-06
-244.6824E-03,-2.590772E-06
-249.8111E-03,-2.597257E-06
-254.7126E-03,-2.603723E-06
-259.6131E-03,-2.600875E-06
-264.7576E-03,-2.603427E-06
-269.6525E-03,-2.607698E-06
-274.5529E-03,-2.614704E-06
-279.6967E-03,-2.621821E-06
-284.6126E-03,-2.617522E-06
-289.7494E-03,-2.617231E-06
-294.6264E-03,-2.628802E-06
-299.5420E-03,-2.617788E-06
-304.6830E-03,-2.619111E-06
-309.5828E-03,-2.625708E-06
-314.7341E-03,-2.626687E-06
-319.6213E-03,-2.629443E-06
-324.5265E-03,-2.626752E-06
-329.6608E-03,-2.628839E-06
-334.5742E-03,-2.620709E-06
-339.6955E-03,-2.625729E-06
-344.5961E-03,-2.626289E-06
-349.5066E-03,-2.634357E-06
-354.6517E-03,-2.629837E-06
-359.5523E-03,-2.629105E-06
-364.4638E-03,-2.635483E-06
-369.5876E-03,-2.639556E-06
-374.4798E-03,-2.635994E-06
-379.6373E-03,-2.636582E-06
-384.5243E-03,-2.631710E-06
-389.4285E-03,-2.627385E-06
-394.5804E-03,-2.632750E-06
-399.4747E-03,-2.630017E-06
-404.6043E-03,-2.634338E-06
-409.5209E-03,-2.633666E-06
-414.4199E-03,-2.635127E-06
-419.5519E-03,-2.632321E-06
-424.4519E-03,-2.629053E-06
-429.5885E-03,-2.631258E-06
-434.4837E-03,-2.627673E-06
-439.3924E-03,-2.638184E-06
-444.5433E-03,-2.630242E-06
-449.4288E-03,-2.629285E-06
-454.3237E-03,-2.629263E-06
-459.4674E-03,-2.629724E-06
-464.3694E-03,-2.631399E-06
-469.5135E-03,-2.631766E-06
-474.4175E-03,-2.628759E-06
-479.3196E-03,-2.630429E-06
-484.4432E-03,-2.630923E-06
-489.3654E-03,-2.623008E-06
-494.4958E-03,-2.627329E-06
-499.4669E-03,-2.630373E-06

-499.4633E-03,-2.628474E-06
-494.7068E-03,-2.624880E-06
-489.5953E-03,-2.628127E-06
-484.6774E-03,-2.630721E-06
-479.5453E-03,-2.628223E-06
-474.6301E-03,-2.632083E-06
-469.7164E-03,-2.631406E-06
-464.5627E-03,-2.630053E-06
-459.6618E-03,-2.631610E-06
-454.5174E-03,-2.633337E-06
-449.6134E-03,-2.629551E-06
-444.7109E-03,-2.629595E-06
-439.5741E-03,-2.628193E-06
-434.6596E-03,-2.629092E-06
-429.7576E-03,-2.635038E-06
-424.6220E-03,-2.634003E-06
-419.7143E-03,-2.635751E-06
-414.5826E-03,-2.631942E-06
-409.6740E-03,-2.628448E-06
-404.7645E-03,-2.636207E-06
-399.6320E-03,-2.635911E-06
-394.7357E-03,-2.633232E-06
-389.5772E-03,-2.631678E-06
-384.6819E-03,-2.634613E-06
-379.7818E-03,-2.634041E-06
-374.6288E-03,-2.632094E-06
-369.7368E-03,-2.632833E-06
-364.6006E-03,-2.632037E-06
-359.6903E-03,-2.633280E-06
-354.7879E-03,-2.628780E-06
-349.6399E-03,-2.633432E-06
-344.7395E-03,-2.629164E-06
-339.8312E-03,-2.631393E-06
-334.7216E-03,-2.628959E-06
-329.8024E-03,-2.631297E-06
-324.6632E-03,-2.630775E-06
-319.7656E-03,-2.624087E-06
-314.8647E-03,-2.625833E-06
-309.7248E-03,-2.625485E-06
-304.8278E-03,-2.622552E-06
-299.6765E-03,-2.624827E-06
-294.7634E-03,-2.620974E-06
-289.8809E-03,-2.618249E-06
-284.7376E-03,-2.618955E-06
-279.8272E-03,-2.617906E-06
-274.6892E-03,-2.611731E-06
-269.7828E-03,-2.610886E-06
-264.8835E-03,-2.612396E-06
-259.7512E-03,-2.610582E-06
-254.8461E-03,-2.600939E-06
-249.9409E-03,-2.599415E-06
-244.8035E-03,-2.601180E-06
-239.9075E-03,-2.596273E-06
-234.7661E-03,-2.589114E-06
-229.8576E-03,-2.590093E-06
-224.9634E-03,-2.585901E-06
-219.8225E-03,-2.577656E-06
-214.9004E-03,-2.573732E-06
-209.7672E-03,-2.563949E-06
-204.8724E-03,-2.561427E-06
-199.9610E-03,-2.551029E-06
-194.8294E-03,-2.543159E-06
-189.9352E-03,-2.534731E-06
-184.7890E-03,-2.522203E-06
-179.8865E-03,-2.512893E-06
-174.9932E-03,-2.502848E-06
-169.8354E-03,-2.493562E-06
-164.9430E-03,-2.480915E-06
-159.8012E-03,-2.465970E-06
-154.8901E-03,-2.450113E-06
-149.9914E-03,-2.426655E-06
-144.8518E-03,-2.405096E-06
-139.9392E-03,-2.384515E-06
-135.0394E-03,-2.358198E-06
-129.9140E-03,-2.326120E-06
-125.0055E-03,-2.300973E-06
-119.8665E-03,-2.259583E-06
-114.9709E-03,-2.228132E-06
-110.0761E-03,-2.187729E-06
-104.9269E-03,-2.137206E-06
-100.0353E-03,-2.091922E-06
-94.89132E-03,-2.028509E-06
-89.97334E-03,-1.984842E-06
-85.08015E-03,-1.925074E-06
-79.95515E-03,-1.846975E-06
-75.03185E-03,-1.777484E-06
-69.89870E-03,-1.694339E-06
-65.00559E-03,-1.628892E-06
-60.10318E-03,-1.536043E-06
-54.96513E-03,-1.435943E-06
-50.05088E-03,-1.357544E-06
-45.14663E-03,-1.250506E-06
-40.02112E-03,-1.137297E-06
-35.13152E-03,-1.031481E-06
-29.96708E-03,-916.1542E-09
-25.06270E-03,-793.6715E-09
-20.16778E-03,-671.0162E-09
-15.01559E-03,-546.8387E-09
-10.12522E-03,-415.9837E-09
-4.986917E-03,-271.2143E-09
-113.0751E-06,-127.4224E-09
+4.800431E-03,+28.16558E-09
+9.929230E-03,+174.2738E-09
+14.81188E-03,+333.6399E-09
+19.95132E-03,+495.7334E-09
+24.85265E-03,+625.2134E-09
+29.74737E-03,+767.7866E-09
+34.90840E-03,+906.1501E-09
+39.81230E-03,+1.023313E-06
+44.93699E-03,+1.156301E-06
+49.84147E-03,+1.258685E-06
+54.74624E-03,+1.371913E-06
+59.88248E-03,+1.470236E-06
+64.79239E-03,+1.575576E-06
+69.69000E-03,+1.651784E-06
+74.81390E-03,+1.741933E-06
+79.73281E-03,+1.814179E-06
+84.87863E-03,+1.888112E-06
+89.76587E-03,+1.959393E-06
+94.67702E-03,+2.019432E-06
+99.81655E-03,+2.075568E-06
+104.7144E-03,+2.123985E-06
+109.8523E-03,+2.163966E-06
+114.7613E-03,+2.218551E-06
+119.6488E-03,+2.254348E-06
+124.7978E-03,+2.296626E-06
+129.7050E-03,+2.319015E-06
+134.8339E-03,+2.375315E-06
+139.7353E-03,+2.381575E-06
+144.6281E-03,+2.406684E-06
+149.7747E-03,+2.424094E-06
+154.6694E-03,+2.438722E-06
+159.5827E-03,+2.469797E-06
+164.7240E-03,+2.479015E-06
+169.6202E-03,+2.502015E-06
+174.7755E-03,+2.509150E-06
+179.6727E-03,+2.509526E-06
+184.5545E-03,+2.543865E-06
+189.7126E-03,+2.536525E-06
+194.6202E-03,+2.538768E-06
+199.7407E-03,+2.550560E-06
+204.6482E-03,+2.562947E-06
+209.5493E-03,+2.565983E-06
+214.6792E-03,+2.577035E-06
+219.5847E-03,+2.574742E-06
+224.7328E-03,+2.574203E-06
+229.6270E-03,+2.587888E-06
+234.5191E-03,+2.587120E-06
+239.6729E-03,+2.601731E-06
+244.5778E-03,+2.596420E-06
+249.7127E-03,+2.611689E-06
+254.6107E-03,+2.604149E-06
+259.5137E-03,+2.600142E-06
+264.6455E-03,+2.611370E-06
+269.5570E-03,+2.617871E-06
+274.4459E-03,+2.625485E-06
+279.5856E-03,+2.617612E-06
+284.5075E-03,+2.623219E-06
+289.6453E-03,+2.615862E-06
+294.5317E-03,+2.628866E-06
+299.4448E-03,+2.623810E-06
+304.5776E-03,+2.628468E-06
+309.4787E-03,+2.622216E-06
+314.6195E-03,+2.622831E-06
+319.5268E-03,+2.636446E-06
+324.4142E-03,+2.634935E-06
+329.5710E-03,+2.633651E-06
+334.4472E-03,+2.624073E-06
+339.5908E-03,+2.632406E-06
+344.4968E-03,+2.628499E-06
+349.3880E-03,+2.639456E-06
+354.5233E-03,+2.635466E-06
+359.4403E-03,+2.637973E-06
+364.3475E-03,+2.630507E-06
+369.4724E-03,+2.636053E-06
+374.3760E-03,+2.636742E-06
+379.5209E-03,+2.638326E-06
+384.4146E-03,+2.631420E-06
+389.3020E-03,+2.638387E-06
+394.4522E-03,+2.631700E-06
+399.3670E-03,+2.636134E-06
+404.4996E-03,+2.641487E-06
+409.4021E-03,+2.631914E-06
+414.2991E-03,+2.639150E-06
+419.4469E-03,+2.634544E-06
+424.3298E-03,+2.638128E-06
+429.4780E-03,+2.638271E-06
+434.3675E-03,+2.634549E-06
+439.2779E-03,+2.638544E-06
+444.4182E-03,+2.637270E-06
+449.3088E-03,+2.637619E-06
+454.2082E-03,+2.635991E-06
+459.3508E-03,+2.634964E-06
+464.2487E-03,+2.637359E-06
+469.3788E-03,+2.633024E-06
+474.2868E-03,+2.634670E-06
+479.1862E-03,+2.633175E-06
+484.3314E-03,+2.632914E-06
+489.2373E-03,+2.632614E-06
+494.3834E-03,+2.636156E-06
+499.3491E-03,+2.629385E-06

MicroMag 2900/3900 Data File ends
