MicroMag 2900/3900 Data File (Series 0016.002)
Direct moment vs. field; Hysteresis loop

INSTRUMENT
Configuration                   VSM
Temperature control             None
Hardware version                0004
Software version                06/08/2012
Units of measure                Hybrid SI
Temperature in                  Kelvin

SAMPLE
Mass                            N/A
Volume                          N/A
Demagnetizing factor            N/A

SETTINGS
Field range                    +1.000000E+00
Field (command)                 N/A
Moment range                   +5.000000E-06
Averaging time                 +100.0000E-03
Temperature (command)           N/A
Tmprtr difference correction    No
Orientation                     0.000000E+00
Vibration amplitude             1.0
Calibration factor             +3.570920E+00
Operating frequency            +83.00000E+00
Sweep mode                      Discrete
Pause after sweep increment    +300.0000E-03

MEASUREMENT
Description                    "DQ15-33B1"
Field (measured)                N/A
Temperature (measured)          N/A
Averages (completed)            1
Measured on                     10/29/2016  13:45
Elapsed time                   +166.7800E+00

PROCESSING
Background subtraction          No
Delta-m processing              N/A
Demagnetizing factor            No
Normalization                   No
Normalization factor            N/A
Offset (field)                  No
Offset (moment)                 No
Pole saturation                 No
Slope correction                No

VIEWPORT
Left                           -500.0000E-03
Right                          +500.0000E-03
Bottom                         -5.000000E-06
Top                            +5.000000E-06
Show X-axis?                    Yes
Show Y-axis?                    Yes

CHARACTERIZATION
Initial slope                   N/A
Saturation                     +2.607864E-06
Remanence                      +120.5298E-09
Coercivity                     +4.059860E-03
S*                             +15.78163E-09

SCRIPT
Averages (target)               1
Averaging time                 +100.0000E-03
Demagnetize?                    No
Maximum field                  +500.0000E-03
Field increment                +5.000000E-03
Hysteresis loop?                Yes
Initial magnetization?          No
Pause                          +1.000000E+00
Saturate before measuring?      No
Number of segments              2
Number of data                  402

Segment   Averaging      Initial        Field         Final                    Final 
 Number      Time         Field       Increment       Field         Pause      Index 
             (s)           (T)           (T)           (T)           (s)     
0000001,+100.0000E-03,+500.0000E-03,+5.000000E-03,-500.0000E-03,+1.000000E+00,0000201
0000002,+100.0000E-03,-500.0000E-03,+5.000000E-03,+500.0000E-03,+1.000000E+00,0000402

                           
    Field         Moment   
     (T)          (Am²)    
+499.3616E-03,+2.609900E-06
+494.6091E-03,+2.607229E-06
+489.5320E-03,+2.613705E-06
+484.6002E-03,+2.607714E-06
+479.4699E-03,+2.611771E-06
+474.5535E-03,+2.610550E-06
+469.6413E-03,+2.612133E-06
+464.5065E-03,+2.609878E-06
+459.5946E-03,+2.613271E-06
+454.4446E-03,+2.612560E-06
+449.5536E-03,+2.616374E-06
+444.6450E-03,+2.614850E-06
+439.5195E-03,+2.615847E-06
+434.6003E-03,+2.611544E-06
+429.6943E-03,+2.614910E-06
+424.5538E-03,+2.616316E-06
+419.6430E-03,+2.619348E-06
+414.5186E-03,+2.613639E-06
+409.6107E-03,+2.619378E-06
+404.7053E-03,+2.615240E-06
+399.5680E-03,+2.615939E-06
+394.6553E-03,+2.614102E-06
+389.5091E-03,+2.612905E-06
+384.6096E-03,+2.615488E-06
+379.7183E-03,+2.612482E-06
+374.5537E-03,+2.614139E-06
+369.6721E-03,+2.611718E-06
+364.5047E-03,+2.612175E-06
+359.6276E-03,+2.609490E-06
+354.7090E-03,+2.610589E-06
+349.5544E-03,+2.607828E-06
+344.6667E-03,+2.612432E-06
+339.7669E-03,+2.610091E-06
+334.6315E-03,+2.611446E-06
+329.7376E-03,+2.610570E-06
+324.5977E-03,+2.613946E-06
+319.6889E-03,+2.611649E-06
+314.7893E-03,+2.614700E-06
+309.6482E-03,+2.607502E-06
+304.7457E-03,+2.606273E-06
+299.5962E-03,+2.605305E-06
+294.6855E-03,+2.605569E-06
+289.7896E-03,+2.606893E-06
+284.6645E-03,+2.602937E-06
+279.7508E-03,+2.598892E-06
+274.6082E-03,+2.593567E-06
+269.7054E-03,+2.597562E-06
+264.8085E-03,+2.593400E-06
+259.6590E-03,+2.586766E-06
+254.7628E-03,+2.590007E-06
+249.8601E-03,+2.587844E-06
+244.7222E-03,+2.574563E-06
+239.8230E-03,+2.585277E-06
+234.6682E-03,+2.573621E-06
+229.7861E-03,+2.566662E-06
+224.8812E-03,+2.563309E-06
+219.7310E-03,+2.556356E-06
+214.8400E-03,+2.548635E-06
+209.7446E-03,+2.546680E-06
+204.7715E-03,+2.547865E-06
+199.8658E-03,+2.540918E-06
+194.7525E-03,+2.534443E-06
+189.8503E-03,+2.519944E-06
+184.7000E-03,+2.508442E-06
+179.8003E-03,+2.497549E-06
+174.9076E-03,+2.487785E-06
+169.7613E-03,+2.468995E-06
+164.8492E-03,+2.462844E-06
+159.7185E-03,+2.445607E-06
+154.8096E-03,+2.435201E-06
+149.9150E-03,+2.411791E-06
+144.7615E-03,+2.391352E-06
+139.8680E-03,+2.370717E-06
+134.9586E-03,+2.342218E-06
+129.8201E-03,+2.302525E-06
+124.9394E-03,+2.282047E-06
+119.7903E-03,+2.243545E-06
+114.8901E-03,+2.217575E-06
+109.9975E-03,+2.176522E-06
+104.8417E-03,+2.132364E-06
+99.95016E-03,+2.075328E-06
+94.80879E-03,+2.031348E-06
+89.89899E-03,+1.984754E-06
+85.00246E-03,+1.912589E-06
+79.86410E-03,+1.848327E-06
+74.93855E-03,+1.766194E-06
+69.81032E-03,+1.701635E-06
+64.90244E-03,+1.610244E-06
+60.00626E-03,+1.541165E-06
+54.86329E-03,+1.440752E-06
+49.96126E-03,+1.336555E-06
+45.06996E-03,+1.241853E-06
+39.92971E-03,+1.135984E-06
+35.02217E-03,+1.037662E-06
+29.87065E-03,+904.7164E-09
+25.02847E-03,+799.3873E-09
+20.07371E-03,+681.9081E-09
+14.91600E-03,+542.6170E-09
+10.04473E-03,+415.5421E-09
+4.922341E-03,+263.0096E-09
+10.78429E-06,+123.8059E-09
-4.853006E-03,-16.57294E-09
-10.00711E-03,-165.3096E-09
-14.88905E-03,-323.2688E-09
-20.05332E-03,-474.8634E-09
-24.96069E-03,-607.3035E-09
-29.86445E-03,-740.7196E-09
-35.01677E-03,-892.0643E-09
-39.90283E-03,-1.012732E-06
-45.03638E-03,-1.127835E-06
-49.93085E-03,-1.227508E-06
-54.85689E-03,-1.339180E-06
-59.98509E-03,-1.455128E-06
-64.87047E-03,-1.532851E-06
-69.78462E-03,-1.612902E-06
-74.91343E-03,-1.734193E-06
-79.83326E-03,-1.792540E-06
-84.97139E-03,-1.862011E-06
-89.83281E-03,-1.947451E-06
-94.77054E-03,-1.993025E-06
-99.91121E-03,-2.040174E-06
-104.8229E-03,-2.111804E-06
-109.9518E-03,-2.151494E-06
-114.8677E-03,-2.181705E-06
-119.7612E-03,-2.248232E-06
-124.8866E-03,-2.275741E-06
-129.7933E-03,-2.309975E-06
-134.9283E-03,-2.337503E-06
-139.8266E-03,-2.352092E-06
-144.7188E-03,-2.381654E-06
-149.8695E-03,-2.401759E-06
-154.7697E-03,-2.420879E-06
-159.6939E-03,-2.440506E-06
-164.8097E-03,-2.448152E-06
-169.7131E-03,-2.465274E-06
-174.8624E-03,-2.479926E-06
-179.7575E-03,-2.497617E-06
-184.6631E-03,-2.501062E-06
-189.8092E-03,-2.497570E-06
-194.6960E-03,-2.522835E-06
-199.8431E-03,-2.537650E-06
-204.7400E-03,-2.542499E-06
-209.6447E-03,-2.533928E-06
-214.7744E-03,-2.544655E-06
-219.6890E-03,-2.542927E-06
-224.8300E-03,-2.557112E-06
-229.7158E-03,-2.568522E-06
-234.6369E-03,-2.569658E-06
-239.7817E-03,-2.563696E-06
-244.6664E-03,-2.575595E-06
-249.7980E-03,-2.574335E-06
-254.7115E-03,-2.579826E-06
-259.6088E-03,-2.588857E-06
-264.7492E-03,-2.598023E-06
-269.6489E-03,-2.584399E-06
-274.5529E-03,-2.586731E-06
-279.6873E-03,-2.598324E-06
-284.6052E-03,-2.593817E-06
-289.7370E-03,-2.588498E-06
-294.6349E-03,-2.598010E-06
-299.5418E-03,-2.598869E-06
-304.6752E-03,-2.606421E-06
-309.5794E-03,-2.613011E-06
-314.7208E-03,-2.598860E-06
-319.6196E-03,-2.618159E-06
-324.5237E-03,-2.595307E-06
-329.6559E-03,-2.598736E-06
-334.5728E-03,-2.597062E-06
-339.6878E-03,-2.612374E-06
-344.5914E-03,-2.614084E-06
-349.5059E-03,-2.615573E-06
-354.6559E-03,-2.608921E-06
-359.5507E-03,-2.607004E-06
-364.4520E-03,-2.615198E-06
-369.5899E-03,-2.619868E-06
-374.4685E-03,-2.615526E-06
-379.6290E-03,-2.606439E-06
-384.5201E-03,-2.610849E-06
-389.4247E-03,-2.609464E-06
-394.5749E-03,-2.612323E-06
-399.4683E-03,-2.608449E-06
-404.5928E-03,-2.608084E-06
-409.5052E-03,-2.606581E-06
-414.4168E-03,-2.605404E-06
-419.5308E-03,-2.613409E-06
-424.4312E-03,-2.618038E-06
-429.5840E-03,-2.606306E-06
-434.4795E-03,-2.609714E-06
-439.3844E-03,-2.612242E-06
-444.5258E-03,-2.611259E-06
-449.4178E-03,-2.614990E-06
-454.3048E-03,-2.604890E-06
-459.4661E-03,-2.604897E-06
-464.3632E-03,-2.613992E-06
-469.4920E-03,-2.601158E-06
-474.4092E-03,-2.607529E-06
-479.3187E-03,-2.606318E-06
-484.4294E-03,-2.611399E-06
-489.3608E-03,-2.601201E-06
-494.4888E-03,-2.609332E-06
-499.4794E-03,-2.601621E-06

-499.4820E-03,-2.604520E-06
-494.7273E-03,-2.607052E-06
-489.6222E-03,-2.607726E-06
-484.7182E-03,-2.607964E-06
-479.5828E-03,-2.610682E-06
-474.6816E-03,-2.612047E-06
-469.7599E-03,-2.608908E-06
-464.6092E-03,-2.613963E-06
-459.7164E-03,-2.613537E-06
-454.5589E-03,-2.607720E-06
-449.6541E-03,-2.611146E-06
-444.7634E-03,-2.610810E-06
-439.6217E-03,-2.610487E-06
-434.7006E-03,-2.610541E-06
-429.7937E-03,-2.614257E-06
-424.6632E-03,-2.613653E-06
-419.7448E-03,-2.613554E-06
-414.6151E-03,-2.609025E-06
-409.7176E-03,-2.613683E-06
-404.8107E-03,-2.606827E-06
-399.6736E-03,-2.615390E-06
-394.7743E-03,-2.619326E-06
-389.6539E-03,-2.612224E-06
-384.7207E-03,-2.613964E-06
-379.8096E-03,-2.612834E-06
-374.6701E-03,-2.611911E-06
-369.7763E-03,-2.610555E-06
-364.6327E-03,-2.606851E-06
-359.7234E-03,-2.609899E-06
-354.8116E-03,-2.614863E-06
-349.6830E-03,-2.612355E-06
-344.7521E-03,-2.617806E-06
-339.8670E-03,-2.609289E-06
-334.7388E-03,-2.613719E-06
-329.8247E-03,-2.605431E-06
-324.6831E-03,-2.604578E-06
-319.7859E-03,-2.601312E-06
-314.9290E-03,-2.605072E-06
-309.7435E-03,-2.602894E-06
-304.8496E-03,-2.600883E-06
-299.7204E-03,-2.599737E-06
-294.7848E-03,-2.597671E-06
-289.8782E-03,-2.595376E-06
-284.7550E-03,-2.593373E-06
-279.8431E-03,-2.595490E-06
-274.7091E-03,-2.590592E-06
-269.8057E-03,-2.591828E-06
-264.9143E-03,-2.586727E-06
-259.7739E-03,-2.584097E-06
-254.8599E-03,-2.577984E-06
-249.9609E-03,-2.580385E-06
-244.8338E-03,-2.580734E-06
-239.9220E-03,-2.568724E-06
-234.7952E-03,-2.567230E-06
-229.8890E-03,-2.570435E-06
-224.9881E-03,-2.558060E-06
-219.8427E-03,-2.556293E-06
-214.9411E-03,-2.551194E-06
-209.7945E-03,-2.548651E-06
-204.8941E-03,-2.536094E-06
-199.9786E-03,-2.530846E-06
-194.8432E-03,-2.531945E-06
-189.9510E-03,-2.515799E-06
-184.8050E-03,-2.513832E-06
-179.9066E-03,-2.503177E-06
-175.0041E-03,-2.480565E-06
-169.8553E-03,-2.479494E-06
-164.9649E-03,-2.455952E-06
-159.8254E-03,-2.443031E-06
-154.9023E-03,-2.430138E-06
-150.0042E-03,-2.406909E-06
-144.8797E-03,-2.392617E-06
-139.9531E-03,-2.369397E-06
-135.0604E-03,-2.331394E-06
-129.9312E-03,-2.314489E-06
-125.0237E-03,-2.279458E-06
-119.8787E-03,-2.240029E-06
-114.9877E-03,-2.204346E-06
-110.0848E-03,-2.163170E-06
-104.9467E-03,-2.118687E-06
-100.0422E-03,-2.078553E-06
-94.90583E-03,-2.023617E-06
-89.98477E-03,-1.960980E-06
-85.09374E-03,-1.907176E-06
-79.94957E-03,-1.829216E-06
-75.03228E-03,-1.765191E-06
-69.91313E-03,-1.686312E-06
-65.00696E-03,-1.604526E-06
-60.11977E-03,-1.537386E-06
-54.97996E-03,-1.441283E-06
-50.06652E-03,-1.346860E-06
-45.16202E-03,-1.244987E-06
-40.04340E-03,-1.147491E-06
-35.14459E-03,-1.026519E-06
-29.98064E-03,-919.1170E-09
-25.07677E-03,-792.3162E-09
-20.17545E-03,-667.8077E-09
-15.03581E-03,-530.2406E-09
-10.14191E-03,-408.0231E-09
-5.001802E-03,-259.5243E-09
-118.8417E-06,-121.2025E-09
+4.773971E-03,+28.55908E-09
+9.911121E-03,+174.6081E-09
+14.80727E-03,+344.0503E-09
+19.94320E-03,+484.9553E-09
+24.84000E-03,+625.1589E-09
+29.72898E-03,+761.9191E-09
+34.90843E-03,+899.0735E-09
+39.80790E-03,+1.013930E-06
+44.92367E-03,+1.149026E-06
+49.83732E-03,+1.256529E-06
+54.73373E-03,+1.357925E-06
+59.88542E-03,+1.480847E-06
+64.78254E-03,+1.559020E-06
+69.67589E-03,+1.639356E-06
+74.82781E-03,+1.738036E-06
+79.74949E-03,+1.808833E-06
+84.86251E-03,+1.869437E-06
+89.76641E-03,+1.932559E-06
+94.65834E-03,+2.018091E-06
+99.80400E-03,+2.061120E-06
+104.6981E-03,+2.096299E-06
+109.8535E-03,+2.164043E-06
+114.7513E-03,+2.207487E-06
+119.6492E-03,+2.231127E-06
+124.7929E-03,+2.258109E-06
+129.6844E-03,+2.297995E-06
+134.8369E-03,+2.332948E-06
+139.7271E-03,+2.368437E-06
+144.6292E-03,+2.387549E-06
+149.7673E-03,+2.408787E-06
+154.6695E-03,+2.412644E-06
+159.5899E-03,+2.439880E-06
+164.7231E-03,+2.482037E-06
+169.6060E-03,+2.467191E-06
+174.7539E-03,+2.487743E-06
+179.6689E-03,+2.499668E-06
+184.5484E-03,+2.512335E-06
+189.7002E-03,+2.513020E-06
+194.5955E-03,+2.527598E-06
+199.7334E-03,+2.537347E-06
+204.6465E-03,+2.543170E-06
+209.5502E-03,+2.558812E-06
+214.6820E-03,+2.538910E-06
+219.5829E-03,+2.549907E-06
+224.7316E-03,+2.555252E-06
+229.6109E-03,+2.571089E-06
+234.5200E-03,+2.573984E-06
+239.6721E-03,+2.578566E-06
+244.5613E-03,+2.575639E-06
+249.7124E-03,+2.589085E-06
+254.6034E-03,+2.581775E-06
+259.5205E-03,+2.595824E-06
+264.6397E-03,+2.592903E-06
+269.5484E-03,+2.588201E-06
+274.4530E-03,+2.606579E-06
+279.5896E-03,+2.581838E-06
+284.5009E-03,+2.597115E-06
+289.6431E-03,+2.609337E-06
+294.4932E-03,+2.616706E-06
+299.4405E-03,+2.590980E-06
+304.5813E-03,+2.602807E-06
+309.4666E-03,+2.607800E-06
+314.6176E-03,+2.605786E-06
+319.5072E-03,+2.619244E-06
+324.4098E-03,+2.605553E-06
+329.5557E-03,+2.609330E-06
+334.4502E-03,+2.616101E-06
+339.5848E-03,+2.609263E-06
+344.4908E-03,+2.607441E-06
+349.3904E-03,+2.617378E-06
+354.5381E-03,+2.616599E-06
+359.4467E-03,+2.597523E-06
+364.3325E-03,+2.620426E-06
+369.4733E-03,+2.613126E-06
+374.3758E-03,+2.612416E-06
+379.5268E-03,+2.609621E-06
+384.4166E-03,+2.620184E-06
+389.3110E-03,+2.619070E-06
+394.4467E-03,+2.612872E-06
+399.3535E-03,+2.613714E-06
+404.4968E-03,+2.614581E-06
+409.3591E-03,+2.617099E-06
+414.2964E-03,+2.611042E-06
+419.4345E-03,+2.613034E-06
+424.3405E-03,+2.615284E-06
+429.4603E-03,+2.611576E-06
+434.3716E-03,+2.612410E-06
+439.2702E-03,+2.613009E-06
+444.4355E-03,+2.611570E-06
+449.2857E-03,+2.613542E-06
+454.2147E-03,+2.607583E-06
+459.3805E-03,+2.615020E-06
+464.2276E-03,+2.615244E-06
+469.3840E-03,+2.610580E-06
+474.2813E-03,+2.607944E-06
+479.1928E-03,+2.615938E-06
+484.3214E-03,+2.610394E-06
+489.2417E-03,+2.604857E-06
+494.3569E-03,+2.607064E-06
+499.3638E-03,+2.607134E-06

MicroMag 2900/3900 Data File ends
