MicroMag 2900/3900 Data File (Series 0016.002)
Direct moment vs. field; Hysteresis loop

INSTRUMENT
Configuration                   VSM
Temperature control             None
Hardware version                0004
Software version                06/08/2012
Units of measure                Hybrid SI
Temperature in                  Kelvin

SAMPLE
Mass                            N/A
Volume                          N/A
Demagnetizing factor            N/A

SETTINGS
Field range                    +1.000000E+00
Field (command)                 N/A
Moment range                   +5.000000E-06
Averaging time                 +100.0000E-03
Temperature (command)           N/A
Tmprtr difference correction    No
Orientation                     0.000000E+00
Vibration amplitude             1.0
Calibration factor             +3.570920E+00
Operating frequency            +83.00000E+00
Sweep mode                      Discrete
Pause after sweep increment    +300.0000E-03

MEASUREMENT
Description                    "DQ15-33B1"
Field (measured)                N/A
Temperature (measured)          N/A
Averages (completed)            1
Measured on                     10/29/2016  13:40
Elapsed time                   +166.8675E+00

PROCESSING
Background subtraction          No
Delta-m processing              N/A
Demagnetizing factor            No
Normalization                   No
Normalization factor            N/A
Offset (field)                  No
Offset (moment)                 No
Pole saturation                 No
Slope correction                No

VIEWPORT
Left                           -500.0000E-03
Right                          +500.0000E-03
Bottom                         -5.000000E-06
Top                            +5.000000E-06
Show X-axis?                    Yes
Show Y-axis?                    Yes

CHARACTERIZATION
Initial slope                   N/A
Saturation                     +2.604241E-06
Remanence                      +122.1888E-09
Coercivity                     +4.222261E-03
S*                             +29.41411E-09

SCRIPT
Averages (target)               1
Averaging time                 +100.0000E-03
Demagnetize?                    No
Maximum field                  +500.0000E-03
Field increment                +5.000000E-03
Hysteresis loop?                Yes
Initial magnetization?          No
Pause                          +1.000000E+00
Saturate before measuring?      No
Number of segments              2
Number of data                  402

Segment   Averaging      Initial        Field         Final                    Final 
 Number      Time         Field       Increment       Field         Pause      Index 
             (s)           (T)           (T)           (T)           (s)     
0000001,+100.0000E-03,+500.0000E-03,+5.000000E-03,-500.0000E-03,+1.000000E+00,0000201
0000002,+100.0000E-03,-500.0000E-03,+5.000000E-03,+500.0000E-03,+1.000000E+00,0000402

                           
    Field         Moment   
     (T)          (Am²)    
+499.3700E-03,+2.600422E-06
+494.6125E-03,+2.608912E-06
+489.5208E-03,+2.604927E-06
+484.6101E-03,+2.612629E-06
+479.4597E-03,+2.612796E-06
+474.5561E-03,+2.605349E-06
+469.6472E-03,+2.612631E-06
+464.5071E-03,+2.611342E-06
+459.5931E-03,+2.611712E-06
+454.4432E-03,+2.610534E-06
+449.5449E-03,+2.612921E-06
+444.6587E-03,+2.616393E-06
+439.5102E-03,+2.613695E-06
+434.5912E-03,+2.611110E-06
+429.6941E-03,+2.614168E-06
+424.5538E-03,+2.615766E-06
+419.6439E-03,+2.612350E-06
+414.5184E-03,+2.615620E-06
+409.6014E-03,+2.616345E-06
+404.6945E-03,+2.616865E-06
+399.5654E-03,+2.613855E-06
+394.6554E-03,+2.618299E-06
+389.5081E-03,+2.612763E-06
+384.6170E-03,+2.616985E-06
+379.7162E-03,+2.616673E-06
+374.5563E-03,+2.620712E-06
+369.6619E-03,+2.615055E-06
+364.5321E-03,+2.618922E-06
+359.6297E-03,+2.610213E-06
+354.7177E-03,+2.614034E-06
+349.5801E-03,+2.613298E-06
+344.6694E-03,+2.610043E-06
+339.7468E-03,+2.613918E-06
+334.6284E-03,+2.609887E-06
+329.7261E-03,+2.611705E-06
+324.5946E-03,+2.609613E-06
+319.6868E-03,+2.608850E-06
+314.7889E-03,+2.609916E-06
+309.6418E-03,+2.604878E-06
+304.7486E-03,+2.605841E-06
+299.5989E-03,+2.603830E-06
+294.6974E-03,+2.606948E-06
+289.8063E-03,+2.602901E-06
+284.6758E-03,+2.600594E-06
+279.7592E-03,+2.599247E-06
+274.6063E-03,+2.596687E-06
+269.7216E-03,+2.591353E-06
+264.8021E-03,+2.598414E-06
+259.6624E-03,+2.584426E-06
+254.7717E-03,+2.584002E-06
+249.8693E-03,+2.583166E-06
+244.7269E-03,+2.577010E-06
+239.8235E-03,+2.578713E-06
+234.6732E-03,+2.563534E-06
+229.7615E-03,+2.568150E-06
+224.8821E-03,+2.561846E-06
+219.7469E-03,+2.556546E-06
+214.8091E-03,+2.546924E-06
+209.6915E-03,+2.538301E-06
+204.7766E-03,+2.532973E-06
+199.8780E-03,+2.538084E-06
+194.7419E-03,+2.527124E-06
+189.8409E-03,+2.518065E-06
+184.6920E-03,+2.502843E-06
+179.8211E-03,+2.500632E-06
+174.9134E-03,+2.489697E-06
+169.7557E-03,+2.470634E-06
+164.8536E-03,+2.458439E-06
+159.7215E-03,+2.448942E-06
+154.8158E-03,+2.425046E-06
+149.9018E-03,+2.414257E-06
+144.8064E-03,+2.394015E-06
+139.8928E-03,+2.365200E-06
+134.9715E-03,+2.348460E-06
+129.8356E-03,+2.320463E-06
+124.9252E-03,+2.278665E-06
+119.7850E-03,+2.242330E-06
+114.8874E-03,+2.224282E-06
+109.9877E-03,+2.170123E-06
+104.8394E-03,+2.131469E-06
+99.93485E-03,+2.078975E-06
+94.79049E-03,+2.027792E-06
+89.89286E-03,+1.961097E-06
+85.00163E-03,+1.903915E-06
+79.84488E-03,+1.841206E-06
+74.93489E-03,+1.764201E-06
+69.79822E-03,+1.695859E-06
+64.90611E-03,+1.622034E-06
+60.00614E-03,+1.518488E-06
+54.86743E-03,+1.453218E-06
+49.97019E-03,+1.343395E-06
+45.06408E-03,+1.243428E-06
+39.91893E-03,+1.138758E-06
+35.03694E-03,+1.024374E-06
+29.86091E-03,+920.5804E-09
+24.98739E-03,+812.4288E-09
+20.07821E-03,+680.7952E-09
+14.91781E-03,+552.3881E-09
+10.04200E-03,+413.2327E-09
+4.914933E-03,+270.1351E-09
+12.04266E-06,+127.8193E-09
-4.871558E-03,-14.06312E-09
-10.01037E-03,-186.9065E-09
-14.90723E-03,-321.2757E-09
-20.05254E-03,-479.9707E-09
-24.94092E-03,-610.1789E-09
-29.85803E-03,-758.4924E-09
-35.01470E-03,-896.8119E-09
-39.89912E-03,-1.017257E-06
-45.04257E-03,-1.140786E-06
-49.93334E-03,-1.256576E-06
-54.83670E-03,-1.359235E-06
-59.97501E-03,-1.456848E-06
-64.87664E-03,-1.542319E-06
-69.78699E-03,-1.649518E-06
-74.91057E-03,-1.732751E-06
-79.83109E-03,-1.801112E-06
-84.97398E-03,-1.859793E-06
-89.85015E-03,-1.941771E-06
-94.77069E-03,-2.004808E-06
-99.90758E-03,-2.050799E-06
-104.8097E-03,-2.116742E-06
-109.9676E-03,-2.152503E-06
-114.8534E-03,-2.188539E-06
-119.7413E-03,-2.246090E-06
-124.8779E-03,-2.256411E-06
-129.7889E-03,-2.286603E-06
-134.9305E-03,-2.321070E-06
-139.8226E-03,-2.352523E-06
-144.7259E-03,-2.369978E-06
-149.8728E-03,-2.400378E-06
-154.7641E-03,-2.421782E-06
-159.6836E-03,-2.430714E-06
-164.8121E-03,-2.451794E-06
-169.7100E-03,-2.470180E-06
-174.8617E-03,-2.479160E-06
-179.7693E-03,-2.486591E-06
-184.6701E-03,-2.509314E-06
-189.8084E-03,-2.506145E-06
-194.6906E-03,-2.514866E-06
-199.8423E-03,-2.517001E-06
-204.7518E-03,-2.543796E-06
-209.6374E-03,-2.537214E-06
-214.7821E-03,-2.563851E-06
-219.6862E-03,-2.552506E-06
-224.8214E-03,-2.561626E-06
-229.7189E-03,-2.561484E-06
-234.6148E-03,-2.566465E-06
-239.7846E-03,-2.574948E-06
-244.6800E-03,-2.572505E-06
-249.8106E-03,-2.579729E-06
-254.7026E-03,-2.589625E-06
-259.6208E-03,-2.590239E-06
-264.7508E-03,-2.585110E-06
-269.6573E-03,-2.595111E-06
-274.5455E-03,-2.592054E-06
-279.6864E-03,-2.593380E-06
-284.6090E-03,-2.599168E-06
-289.7376E-03,-2.599575E-06
-294.5982E-03,-2.593836E-06
-299.5486E-03,-2.604443E-06
-304.6840E-03,-2.600791E-06
-309.5798E-03,-2.593191E-06
-314.7272E-03,-2.606488E-06
-319.6170E-03,-2.594636E-06
-324.4880E-03,-2.611630E-06
-329.6571E-03,-2.599968E-06
-334.5203E-03,-2.598930E-06
-339.6816E-03,-2.611111E-06
-344.5913E-03,-2.623437E-06
-349.4890E-03,-2.606011E-06
-354.6407E-03,-2.614903E-06
-359.5385E-03,-2.615041E-06
-364.4528E-03,-2.606610E-06
-369.5765E-03,-2.617579E-06
-374.4733E-03,-2.616301E-06
-379.6067E-03,-2.607030E-06
-384.5481E-03,-2.621138E-06
-389.4310E-03,-2.616196E-06
-394.5831E-03,-2.607182E-06
-399.4510E-03,-2.614420E-06
-404.5558E-03,-2.613975E-06
-409.5061E-03,-2.611767E-06
-414.4162E-03,-2.613743E-06
-419.5517E-03,-2.611081E-06
-424.4507E-03,-2.611497E-06
-429.5773E-03,-2.608019E-06
-434.4793E-03,-2.605598E-06
-439.3796E-03,-2.605084E-06
-444.5450E-03,-2.612126E-06
-449.4312E-03,-2.614221E-06
-454.3105E-03,-2.611008E-06
-459.4767E-03,-2.616230E-06
-464.3567E-03,-2.607203E-06
-469.5073E-03,-2.611418E-06
-474.4204E-03,-2.612883E-06
-479.3136E-03,-2.612504E-06
-484.4437E-03,-2.609765E-06
-489.3575E-03,-2.605635E-06
-494.4924E-03,-2.608850E-06
-499.4852E-03,-2.603725E-06

-499.4845E-03,-2.601234E-06
-494.7138E-03,-2.602725E-06
-489.6263E-03,-2.605316E-06
-484.7212E-03,-2.608679E-06
-479.5944E-03,-2.606751E-06
-474.6762E-03,-2.607392E-06
-469.7623E-03,-2.607835E-06
-464.6164E-03,-2.607957E-06
-459.7134E-03,-2.608529E-06
-454.5585E-03,-2.607683E-06
-449.6557E-03,-2.612662E-06
-444.7575E-03,-2.610808E-06
-439.6172E-03,-2.607681E-06
-434.7079E-03,-2.612896E-06
-429.8006E-03,-2.614306E-06
-424.6815E-03,-2.611582E-06
-419.7443E-03,-2.609238E-06
-414.6207E-03,-2.609952E-06
-409.7036E-03,-2.611401E-06
-404.8019E-03,-2.612254E-06
-399.6784E-03,-2.606362E-06
-394.7731E-03,-2.612535E-06
-389.5827E-03,-2.614395E-06
-384.7224E-03,-2.615240E-06
-379.8089E-03,-2.616647E-06
-374.6661E-03,-2.612335E-06
-369.7655E-03,-2.614573E-06
-364.6324E-03,-2.612096E-06
-359.7164E-03,-2.610952E-06
-354.8219E-03,-2.611026E-06
-349.6684E-03,-2.612188E-06
-344.7659E-03,-2.614926E-06
-339.8604E-03,-2.609516E-06
-334.7474E-03,-2.608554E-06
-329.8377E-03,-2.615038E-06
-324.6873E-03,-2.610257E-06
-319.7890E-03,-2.603640E-06
-314.8926E-03,-2.602545E-06
-309.7358E-03,-2.601853E-06
-304.8623E-03,-2.602874E-06
-299.7064E-03,-2.603831E-06
-294.7933E-03,-2.593481E-06
-289.9172E-03,-2.595793E-06
-284.7862E-03,-2.600993E-06
-279.8322E-03,-2.588762E-06
-274.7072E-03,-2.591027E-06
-269.8161E-03,-2.595362E-06
-264.9110E-03,-2.586814E-06
-259.7806E-03,-2.581119E-06
-254.8714E-03,-2.580007E-06
-249.9638E-03,-2.576223E-06
-244.8190E-03,-2.581252E-06
-239.9358E-03,-2.572046E-06
-234.7817E-03,-2.574488E-06
-229.8762E-03,-2.566945E-06
-224.9845E-03,-2.555222E-06
-219.8292E-03,-2.552158E-06
-214.9322E-03,-2.543939E-06
-209.7917E-03,-2.543134E-06
-204.8921E-03,-2.535185E-06
-199.9839E-03,-2.530567E-06
-194.8582E-03,-2.523932E-06
-189.9576E-03,-2.514999E-06
-184.8177E-03,-2.502810E-06
-179.9217E-03,-2.494865E-06
-175.0080E-03,-2.492537E-06
-169.8573E-03,-2.472357E-06
-164.9694E-03,-2.456718E-06
-159.8330E-03,-2.442113E-06
-154.9182E-03,-2.434126E-06
-150.0153E-03,-2.395631E-06
-144.8638E-03,-2.398426E-06
-139.9586E-03,-2.364176E-06
-135.0722E-03,-2.337859E-06
-129.9327E-03,-2.316410E-06
-125.0143E-03,-2.288440E-06
-119.8778E-03,-2.248431E-06
-114.9895E-03,-2.201806E-06
-110.0862E-03,-2.171149E-06
-104.9529E-03,-2.118114E-06
-100.0435E-03,-2.076342E-06
-94.90938E-03,-2.027992E-06
-89.98868E-03,-1.965657E-06
-85.09599E-03,-1.900132E-06
-79.96166E-03,-1.838785E-06
-75.05819E-03,-1.772671E-06
-69.90914E-03,-1.690822E-06
-65.01366E-03,-1.616703E-06
-60.10914E-03,-1.529440E-06
-54.97060E-03,-1.430636E-06
-50.06972E-03,-1.331698E-06
-45.16805E-03,-1.255781E-06
-40.03122E-03,-1.135812E-06
-35.14122E-03,-1.026755E-06
-29.98389E-03,-906.4257E-09
-25.07618E-03,-790.9060E-09
-20.17529E-03,-676.7203E-09
-15.03067E-03,-558.0246E-09
-10.13461E-03,-393.3426E-09
-4.994675E-03,-269.4135E-09
-119.8378E-06,-120.3614E-09
+4.786562E-03,+21.02272E-09
+9.927340E-03,+181.8235E-09
+14.79861E-03,+331.8182E-09
+19.93714E-03,+490.8383E-09
+24.84530E-03,+628.4662E-09
+29.73654E-03,+759.6971E-09
+34.90863E-03,+886.8751E-09
+39.79887E-03,+1.024764E-06
+44.94070E-03,+1.129505E-06
+49.83854E-03,+1.246529E-06
+54.73336E-03,+1.369046E-06
+59.87667E-03,+1.471387E-06
+64.78255E-03,+1.559535E-06
+69.68568E-03,+1.642686E-06
+74.81387E-03,+1.724378E-06
+79.73176E-03,+1.801364E-06
+84.86766E-03,+1.882978E-06
+89.75271E-03,+1.960692E-06
+94.67442E-03,+1.993036E-06
+99.79058E-03,+2.047914E-06
+104.6931E-03,+2.101270E-06
+109.8635E-03,+2.157925E-06
+114.7470E-03,+2.199507E-06
+119.6486E-03,+2.245384E-06
+124.7984E-03,+2.257555E-06
+129.6881E-03,+2.294008E-06
+134.7945E-03,+2.340176E-06
+139.7375E-03,+2.364231E-06
+144.6591E-03,+2.379820E-06
+149.7413E-03,+2.414643E-06
+154.6539E-03,+2.441498E-06
+159.5807E-03,+2.429725E-06
+164.7293E-03,+2.455210E-06
+169.6112E-03,+2.455922E-06
+174.7567E-03,+2.487423E-06
+179.6590E-03,+2.472147E-06
+184.5460E-03,+2.510735E-06
+189.6990E-03,+2.519580E-06
+194.6001E-03,+2.518493E-06
+199.7339E-03,+2.552943E-06
+204.6523E-03,+2.538825E-06
+209.5426E-03,+2.541587E-06
+214.6705E-03,+2.552232E-06
+219.5950E-03,+2.548138E-06
+224.7315E-03,+2.564521E-06
+229.6246E-03,+2.575033E-06
+234.5228E-03,+2.548480E-06
+239.6894E-03,+2.579363E-06
+244.5643E-03,+2.575009E-06
+249.7022E-03,+2.578091E-06
+254.5956E-03,+2.585604E-06
+259.4992E-03,+2.586165E-06
+264.6420E-03,+2.592516E-06
+269.5418E-03,+2.597029E-06
+274.4393E-03,+2.584186E-06
+279.5361E-03,+2.613679E-06
+284.5024E-03,+2.591677E-06
+289.6439E-03,+2.598562E-06
+294.5870E-03,+2.601019E-06
+299.4232E-03,+2.615003E-06
+304.5770E-03,+2.598232E-06
+309.4656E-03,+2.604634E-06
+314.6133E-03,+2.605095E-06
+319.4968E-03,+2.606543E-06
+324.4122E-03,+2.605478E-06
+329.5607E-03,+2.607480E-06
+334.4598E-03,+2.610965E-06
+339.5903E-03,+2.612378E-06
+344.4897E-03,+2.608510E-06
+349.3919E-03,+2.614890E-06
+354.5416E-03,+2.618067E-06
+359.4489E-03,+2.618715E-06
+364.3518E-03,+2.616897E-06
+369.4680E-03,+2.613330E-06
+374.3699E-03,+2.613139E-06
+379.5327E-03,+2.619347E-06
+384.4302E-03,+2.618282E-06
+389.3043E-03,+2.618904E-06
+394.4870E-03,+2.622344E-06
+399.3656E-03,+2.615930E-06
+404.4985E-03,+2.613856E-06
+409.3967E-03,+2.616951E-06
+414.3012E-03,+2.620174E-06
+419.4375E-03,+2.609840E-06
+424.3382E-03,+2.609108E-06
+429.4755E-03,+2.614738E-06
+434.3818E-03,+2.613330E-06
+439.2993E-03,+2.605371E-06
+444.4238E-03,+2.608961E-06
+449.3120E-03,+2.614239E-06
+454.2046E-03,+2.607471E-06
+459.3512E-03,+2.610897E-06
+464.2194E-03,+2.612952E-06
+469.3799E-03,+2.612950E-06
+474.2993E-03,+2.609772E-06
+479.1909E-03,+2.610872E-06
+484.3119E-03,+2.608612E-06
+489.2328E-03,+2.612622E-06
+494.3660E-03,+2.610723E-06
+499.3742E-03,+2.601435E-06

MicroMag 2900/3900 Data File ends
