MicroMag 2900/3900 Data File (Series 0016.002)
Direct moment vs. field; Hysteresis loop

INSTRUMENT
Configuration                   VSM
Temperature control             None
Hardware version                0004
Software version                06/08/2012
Units of measure                Hybrid SI
Temperature in                  Kelvin

SAMPLE
Mass                            N/A
Volume                          N/A
Demagnetizing factor            N/A

SETTINGS
Field range                    +1.000000E+00
Field (command)                 N/A
Moment range                   +5.000000E-06
Averaging time                 +100.0000E-03
Temperature (command)           N/A
Tmprtr difference correction    No
Orientation                     0.000000E+00
Vibration amplitude             1.0
Calibration factor             +3.570920E+00
Operating frequency            +83.00000E+00
Sweep mode                      Discrete
Pause after sweep increment    +300.0000E-03

MEASUREMENT
Description                    "DQ15-33B1"
Field (measured)                N/A
Temperature (measured)          N/A
Averages (completed)            1
Measured on                     10/29/2016  13:06
Elapsed time                   +166.8155E+00

PROCESSING
Background subtraction          No
Delta-m processing              N/A
Demagnetizing factor            No
Normalization                   No
Normalization factor            N/A
Offset (field)                  No
Offset (moment)                 No
Pole saturation                 No
Slope correction                No

VIEWPORT
Left                           -500.0000E-03
Right                          +500.0000E-03
Bottom                         -5.000000E-06
Top                            +5.000000E-06
Show X-axis?                    Yes
Show Y-axis?                    Yes

CHARACTERIZATION
Initial slope                   N/A
Saturation                     +2.601355E-06
Remanence                      +122.8127E-09
Coercivity                     +4.299460E-03
S*                             +35.86793E-03

SCRIPT
Averages (target)               1
Averaging time                 +100.0000E-03
Demagnetize?                    No
Maximum field                  +500.0000E-03
Field increment                +5.000000E-03
Hysteresis loop?                Yes
Initial magnetization?          No
Pause                          +1.000000E+00
Saturate before measuring?      No
Number of segments              2
Number of data                  402

Segment   Averaging      Initial        Field         Final                    Final 
 Number      Time         Field       Increment       Field         Pause      Index 
             (s)           (T)           (T)           (T)           (s)     
0000001,+100.0000E-03,+500.0000E-03,+5.000000E-03,-500.0000E-03,+1.000000E+00,0000201
0000002,+100.0000E-03,-500.0000E-03,+5.000000E-03,+500.0000E-03,+1.000000E+00,0000402

                           
    Field         Moment   
     (T)          (Am²)    
+499.3799E-03,+2.601146E-06
+494.6170E-03,+2.608952E-06
+489.5165E-03,+2.607565E-06
+484.6054E-03,+2.606429E-06
+479.4748E-03,+2.606837E-06
+474.5706E-03,+2.604164E-06
+469.6455E-03,+2.608424E-06
+464.5000E-03,+2.611628E-06
+459.6078E-03,+2.608555E-06
+454.4461E-03,+2.607359E-06
+449.5423E-03,+2.605864E-06
+444.6455E-03,+2.610123E-06
+439.5110E-03,+2.609600E-06
+434.5962E-03,+2.605813E-06
+429.6871E-03,+2.606711E-06
+424.5640E-03,+2.608522E-06
+419.6570E-03,+2.606522E-06
+414.5229E-03,+2.608140E-06
+409.6226E-03,+2.610936E-06
+404.6899E-03,+2.614981E-06
+399.5528E-03,+2.609545E-06
+394.6558E-03,+2.611678E-06
+389.5119E-03,+2.615614E-06
+384.6096E-03,+2.613981E-06
+379.7210E-03,+2.608072E-06
+374.5692E-03,+2.610250E-06
+369.6736E-03,+2.608786E-06
+364.5186E-03,+2.605760E-06
+359.6221E-03,+2.611078E-06
+354.7196E-03,+2.610695E-06
+349.5714E-03,+2.606572E-06
+344.6699E-03,+2.605872E-06
+339.7634E-03,+2.605181E-06
+334.6144E-03,+2.601897E-06
+329.7369E-03,+2.604774E-06
+324.5833E-03,+2.603128E-06
+319.6836E-03,+2.602130E-06
+314.7933E-03,+2.601078E-06
+309.6438E-03,+2.596660E-06
+304.7448E-03,+2.600275E-06
+299.6017E-03,+2.598307E-06
+294.7008E-03,+2.602356E-06
+289.7862E-03,+2.595176E-06
+284.6753E-03,+2.596171E-06
+279.7491E-03,+2.589581E-06
+274.6049E-03,+2.586386E-06
+269.7128E-03,+2.588102E-06
+264.8074E-03,+2.589038E-06
+259.6695E-03,+2.581657E-06
+254.7629E-03,+2.581250E-06
+249.8691E-03,+2.576375E-06
+244.7284E-03,+2.576077E-06
+239.8165E-03,+2.572205E-06
+234.6622E-03,+2.571063E-06
+229.7781E-03,+2.565226E-06
+224.8698E-03,+2.558566E-06
+219.7338E-03,+2.550091E-06
+214.8301E-03,+2.544265E-06
+209.6860E-03,+2.542437E-06
+204.7936E-03,+2.534470E-06
+199.8766E-03,+2.526259E-06
+194.7566E-03,+2.522265E-06
+189.8472E-03,+2.513380E-06
+184.6988E-03,+2.494798E-06
+179.8087E-03,+2.490313E-06
+174.9230E-03,+2.482447E-06
+169.7387E-03,+2.476992E-06
+164.8602E-03,+2.448818E-06
+159.7299E-03,+2.431960E-06
+154.7940E-03,+2.431849E-06
+149.9072E-03,+2.399678E-06
+144.7574E-03,+2.379539E-06
+139.8662E-03,+2.357259E-06
+134.9703E-03,+2.328634E-06
+129.8179E-03,+2.309106E-06
+124.9372E-03,+2.278857E-06
+119.7843E-03,+2.244154E-06
+114.8670E-03,+2.198669E-06
+110.0002E-03,+2.172045E-06
+104.8324E-03,+2.124008E-06
+99.94162E-03,+2.072438E-06
+94.80540E-03,+2.022028E-06
+89.89266E-03,+1.960490E-06
+85.01333E-03,+1.906739E-06
+79.86746E-03,+1.839519E-06
+74.91326E-03,+1.765619E-06
+69.82047E-03,+1.703408E-06
+64.92428E-03,+1.611115E-06
+60.02500E-03,+1.521810E-06
+54.87031E-03,+1.436821E-06
+49.95845E-03,+1.341947E-06
+45.07030E-03,+1.252818E-06
+39.93477E-03,+1.133296E-06
+35.03281E-03,+1.039474E-06
+29.86225E-03,+903.7601E-09
+24.98010E-03,+799.8302E-09
+20.07681E-03,+681.7953E-09
+14.91935E-03,+547.3702E-09
+10.05057E-03,+413.4863E-09
+4.911575E-03,+278.2744E-09
+17.53244E-06,+121.1545E-09
-4.882071E-03,-1.175563E-09
-10.00052E-03,-157.1662E-09
-14.90542E-03,-336.7615E-09
-20.05997E-03,-478.7481E-09
-24.94518E-03,-616.2489E-09
-29.86190E-03,-753.6777E-09
-35.02208E-03,-891.0784E-09
-39.89971E-03,-1.010915E-06
-45.03444E-03,-1.116493E-06
-49.93301E-03,-1.239373E-06
-54.84757E-03,-1.357287E-06
-59.97810E-03,-1.455457E-06
-64.87789E-03,-1.548949E-06
-69.78130E-03,-1.631443E-06
-74.91753E-03,-1.714935E-06
-79.83819E-03,-1.780154E-06
-84.96638E-03,-1.865440E-06
-89.85928E-03,-1.931932E-06
-94.78331E-03,-1.990217E-06
-99.91337E-03,-2.045280E-06
-104.8064E-03,-2.097669E-06
-109.9615E-03,-2.131088E-06
-114.8567E-03,-2.184587E-06
-119.7564E-03,-2.211570E-06
-124.8761E-03,-2.280270E-06
-129.7995E-03,-2.291049E-06
-134.9280E-03,-2.327813E-06
-139.8240E-03,-2.344254E-06
-144.7315E-03,-2.383280E-06
-149.8738E-03,-2.393597E-06
-154.7660E-03,-2.411026E-06
-159.6895E-03,-2.417832E-06
-164.8288E-03,-2.460345E-06
-169.7030E-03,-2.458665E-06
-174.8619E-03,-2.489000E-06
-179.7778E-03,-2.485300E-06
-184.6502E-03,-2.498758E-06
-189.8179E-03,-2.502962E-06
-194.6946E-03,-2.509533E-06
-199.8410E-03,-2.525283E-06
-204.7439E-03,-2.540670E-06
-209.6439E-03,-2.537619E-06
-214.7784E-03,-2.546823E-06
-219.7004E-03,-2.546724E-06
-224.8390E-03,-2.553333E-06
-229.7417E-03,-2.555331E-06
-234.6226E-03,-2.573941E-06
-239.7882E-03,-2.567819E-06
-244.6717E-03,-2.579729E-06
-249.8051E-03,-2.578947E-06
-254.7517E-03,-2.580252E-06
-259.6191E-03,-2.583964E-06
-264.7534E-03,-2.584018E-06
-269.6283E-03,-2.576080E-06
-274.5554E-03,-2.591383E-06
-279.6800E-03,-2.593137E-06
-284.5986E-03,-2.593870E-06
-289.7445E-03,-2.593939E-06
-294.6189E-03,-2.589275E-06
-299.5051E-03,-2.585965E-06
-304.6658E-03,-2.593547E-06
-309.5802E-03,-2.595517E-06
-314.7015E-03,-2.595464E-06
-319.6138E-03,-2.598334E-06
-324.5080E-03,-2.592549E-06
-329.6554E-03,-2.597723E-06
-334.5708E-03,-2.606387E-06
-339.6996E-03,-2.609558E-06
-344.6037E-03,-2.594599E-06
-349.5103E-03,-2.596837E-06
-354.6372E-03,-2.602941E-06
-359.5475E-03,-2.603710E-06
-364.4550E-03,-2.597408E-06
-369.6293E-03,-2.607414E-06
-374.4801E-03,-2.607135E-06
-379.6135E-03,-2.605049E-06
-384.5312E-03,-2.604300E-06
-389.4271E-03,-2.604808E-06
-394.5798E-03,-2.600296E-06
-399.4646E-03,-2.602963E-06
-404.6002E-03,-2.608931E-06
-409.5019E-03,-2.605569E-06
-414.4267E-03,-2.611886E-06
-419.5513E-03,-2.609120E-06
-424.4445E-03,-2.608652E-06
-429.5903E-03,-2.598656E-06
-434.4874E-03,-2.610517E-06
-439.3956E-03,-2.602353E-06
-444.5437E-03,-2.598751E-06
-449.4115E-03,-2.603625E-06
-454.3316E-03,-2.600911E-06
-459.4740E-03,-2.603543E-06
-464.3769E-03,-2.603320E-06
-469.5041E-03,-2.604782E-06
-474.4117E-03,-2.599180E-06
-479.3188E-03,-2.599627E-06
-484.4365E-03,-2.607581E-06
-489.3539E-03,-2.599445E-06
-494.4881E-03,-2.602321E-06
-499.4883E-03,-2.602512E-06

-499.4857E-03,-2.593686E-06
-494.7285E-03,-2.598653E-06
-489.6469E-03,-2.596802E-06
-484.7183E-03,-2.599736E-06
-479.6030E-03,-2.603984E-06
-474.6896E-03,-2.607621E-06
-469.7620E-03,-2.602712E-06
-464.6171E-03,-2.605723E-06
-459.7087E-03,-2.606403E-06
-454.5489E-03,-2.604804E-06
-449.6301E-03,-2.607638E-06
-444.7522E-03,-2.603040E-06
-439.6198E-03,-2.610481E-06
-434.6997E-03,-2.608568E-06
-429.8046E-03,-2.605848E-06
-424.6805E-03,-2.603381E-06
-419.7614E-03,-2.606352E-06
-414.6442E-03,-2.605898E-06
-409.7123E-03,-2.612721E-06
-404.7905E-03,-2.607155E-06
-399.6564E-03,-2.610835E-06
-394.7794E-03,-2.605933E-06
-389.6153E-03,-2.608738E-06
-384.7118E-03,-2.610505E-06
-379.8203E-03,-2.606800E-06
-374.6484E-03,-2.609154E-06
-369.7763E-03,-2.603563E-06
-364.6441E-03,-2.610929E-06
-359.7318E-03,-2.607780E-06
-354.8261E-03,-2.605300E-06
-349.6875E-03,-2.610167E-06
-344.7733E-03,-2.603021E-06
-339.8797E-03,-2.603060E-06
-334.7413E-03,-2.605928E-06
-329.8265E-03,-2.602497E-06
-324.6948E-03,-2.606894E-06
-319.7994E-03,-2.599220E-06
-314.8932E-03,-2.602554E-06
-309.7469E-03,-2.603846E-06
-304.8482E-03,-2.596889E-06
-299.7037E-03,-2.591553E-06
-294.7976E-03,-2.597407E-06
-289.9056E-03,-2.593428E-06
-284.7638E-03,-2.586940E-06
-279.8426E-03,-2.591036E-06
-274.7147E-03,-2.584077E-06
-269.8107E-03,-2.582563E-06
-264.9172E-03,-2.588461E-06
-259.7565E-03,-2.584951E-06
-254.8647E-03,-2.575824E-06
-249.9558E-03,-2.580672E-06
-244.8258E-03,-2.572587E-06
-239.9461E-03,-2.563381E-06
-234.7722E-03,-2.569854E-06
-229.8733E-03,-2.558575E-06
-224.9955E-03,-2.561439E-06
-219.8538E-03,-2.550256E-06
-214.9243E-03,-2.540306E-06
-209.7852E-03,-2.541323E-06
-204.8956E-03,-2.533720E-06
-199.9912E-03,-2.530861E-06
-194.8507E-03,-2.514497E-06
-189.9617E-03,-2.507541E-06
-184.8572E-03,-2.500548E-06
-179.9263E-03,-2.487266E-06
-175.0067E-03,-2.474826E-06
-169.8572E-03,-2.472737E-06
-164.9659E-03,-2.457241E-06
-159.8230E-03,-2.437003E-06
-154.9244E-03,-2.418597E-06
-150.0060E-03,-2.401488E-06
-144.8707E-03,-2.380619E-06
-139.9637E-03,-2.362128E-06
-135.0550E-03,-2.329157E-06
-129.9232E-03,-2.303535E-06
-125.0174E-03,-2.276441E-06
-119.8869E-03,-2.235382E-06
-114.9941E-03,-2.211175E-06
-110.0956E-03,-2.159291E-06
-104.9556E-03,-2.115309E-06
-100.0520E-03,-2.065203E-06
-94.90465E-03,-2.007747E-06
-90.00440E-03,-1.950726E-06
-85.12644E-03,-1.899913E-06
-79.96261E-03,-1.830321E-06
-75.04202E-03,-1.756801E-06
-69.91044E-03,-1.686313E-06
-65.02008E-03,-1.602859E-06
-60.12573E-03,-1.520383E-06
-54.98515E-03,-1.422117E-06
-50.06394E-03,-1.334881E-06
-45.17659E-03,-1.237543E-06
-40.05268E-03,-1.128122E-06
-35.15178E-03,-1.021931E-06
-30.01153E-03,-920.4246E-09
-25.08477E-03,-798.5695E-09
-20.17515E-03,-672.6434E-09
-15.03436E-03,-535.0602E-09
-10.14380E-03,-403.4469E-09
-4.999118E-03,-260.6117E-09
-131.3050E-06,-129.2661E-09
+4.780719E-03,+33.74266E-09
+9.910819E-03,+180.6293E-09
+14.78987E-03,+322.5711E-09
+19.94993E-03,+474.9787E-09
+24.84503E-03,+615.5638E-09
+29.72573E-03,+762.5392E-09
+34.88770E-03,+903.6444E-09
+39.79781E-03,+1.023743E-06
+44.93079E-03,+1.145528E-06
+49.83201E-03,+1.247733E-06
+54.74688E-03,+1.355589E-06
+59.85972E-03,+1.477068E-06
+64.79293E-03,+1.542140E-06
+69.68830E-03,+1.653635E-06
+74.80758E-03,+1.721000E-06
+79.72648E-03,+1.789546E-06
+84.86535E-03,+1.877388E-06
+89.75752E-03,+1.924549E-06
+94.66580E-03,+1.983657E-06
+99.80863E-03,+2.038377E-06
+104.6982E-03,+2.100940E-06
+109.8499E-03,+2.156443E-06
+114.7513E-03,+2.191900E-06
+119.6404E-03,+2.233011E-06
+124.7978E-03,+2.273963E-06
+129.6808E-03,+2.292995E-06
+134.8308E-03,+2.333413E-06
+139.7172E-03,+2.361893E-06
+144.6329E-03,+2.382058E-06
+149.7634E-03,+2.398418E-06
+154.6750E-03,+2.411284E-06
+159.5895E-03,+2.425457E-06
+164.7114E-03,+2.452928E-06
+169.6020E-03,+2.465981E-06
+174.7598E-03,+2.466221E-06
+179.6649E-03,+2.485445E-06
+184.5529E-03,+2.494968E-06
+189.7058E-03,+2.505232E-06
+194.6008E-03,+2.516197E-06
+199.7296E-03,+2.521881E-06
+204.6392E-03,+2.526547E-06
+209.5452E-03,+2.554010E-06
+214.6732E-03,+2.550309E-06
+219.5859E-03,+2.550193E-06
+224.7279E-03,+2.558168E-06
+229.6320E-03,+2.557106E-06
+234.5248E-03,+2.569086E-06
+239.6731E-03,+2.566476E-06
+244.5789E-03,+2.568908E-06
+249.7068E-03,+2.574429E-06
+254.6049E-03,+2.578920E-06
+259.5043E-03,+2.592987E-06
+264.6351E-03,+2.590693E-06
+269.5567E-03,+2.581486E-06
+274.4389E-03,+2.591515E-06
+279.5705E-03,+2.591526E-06
+284.5208E-03,+2.597717E-06
+289.6414E-03,+2.592730E-06
+294.5213E-03,+2.589505E-06
+299.4300E-03,+2.598626E-06
+304.5821E-03,+2.597521E-06
+309.4630E-03,+2.611709E-06
+314.6204E-03,+2.607108E-06
+319.5122E-03,+2.592109E-06
+324.4218E-03,+2.603881E-06
+329.5724E-03,+2.598059E-06
+334.4636E-03,+2.602618E-06
+339.5946E-03,+2.600204E-06
+344.4955E-03,+2.608675E-06
+349.3950E-03,+2.606647E-06
+354.5407E-03,+2.606782E-06
+359.4309E-03,+2.606546E-06
+364.3256E-03,+2.609794E-06
+369.4799E-03,+2.615639E-06
+374.3703E-03,+2.611554E-06
+379.5179E-03,+2.605540E-06
+384.4287E-03,+2.602184E-06
+389.2944E-03,+2.606957E-06
+394.4503E-03,+2.614828E-06
+399.3656E-03,+2.599432E-06
+404.5050E-03,+2.593400E-06
+409.4037E-03,+2.607752E-06
+414.3026E-03,+2.607711E-06
+419.4435E-03,+2.616428E-06
+424.3336E-03,+2.612335E-06
+429.4724E-03,+2.613872E-06
+434.3704E-03,+2.609949E-06
+439.2675E-03,+2.615851E-06
+444.4132E-03,+2.603183E-06
+449.2998E-03,+2.611094E-06
+454.2186E-03,+2.610638E-06
+459.3486E-03,+2.605724E-06
+464.2578E-03,+2.610880E-06
+469.3758E-03,+2.613144E-06
+474.2934E-03,+2.606107E-06
+479.1979E-03,+2.598364E-06
+484.3137E-03,+2.605758E-06
+489.2460E-03,+2.599679E-06
+494.3744E-03,+2.604791E-06
+499.3646E-03,+2.603071E-06

MicroMag 2900/3900 Data File ends
