MicroMag 2900/3900 Data File (Series 0016.002)
Direct moment vs. field; Hysteresis loop

INSTRUMENT
Configuration                   VSM
Temperature control             None
Hardware version                0004
Software version                06/08/2012
Units of measure                Hybrid SI
Temperature in                  Kelvin

SAMPLE
Mass                            N/A
Volume                          N/A
Demagnetizing factor            N/A

SETTINGS
Field range                    +1.000000E+00
Field (command)                 N/A
Moment range                   +5.000000E-06
Averaging time                 +200.0000E-03
Temperature (command)           N/A
Tmprtr difference correction    No
Orientation                     0.000000E+00
Vibration amplitude             1.0
Calibration factor             +3.570920E+00
Operating frequency            +83.00000E+00
Sweep mode                      Discrete
Pause after sweep increment    +300.0000E-03

MEASUREMENT
Description                    "DQ15-33B1"
Field (measured)                N/A
Temperature (measured)          N/A
Averages (completed)            1
Measured on                     10/29/2016  15:29
Elapsed time                   +206.9426E+00

PROCESSING
Background subtraction          No
Delta-m processing              N/A
Demagnetizing factor            No
Normalization                   No
Normalization factor            N/A
Offset (field)                  No
Offset (moment)                 No
Pole saturation                 No
Slope correction                No

VIEWPORT
Left                           -500.0000E-03
Right                          +500.0000E-03
Bottom                         -5.000000E-06
Top                            +5.000000E-06
Show X-axis?                    Yes
Show Y-axis?                    Yes

CHARACTERIZATION
Initial slope                   N/A
Saturation                     +2.628034E-06
Remanence                      +129.1631E-09
Coercivity                     +4.202253E-03
S*                             +98.22576E-06

SCRIPT
Averages (target)               1
Averaging time                 +200.0000E-03
Demagnetize?                    No
Maximum field                  +500.0000E-03
Field increment                +5.000000E-03
Hysteresis loop?                Yes
Initial magnetization?          No
Pause                          +1.000000E+00
Saturate before measuring?      No
Number of segments              2
Number of data                  402

Segment   Averaging      Initial        Field         Final                    Final 
 Number      Time         Field       Increment       Field         Pause      Index 
             (s)           (T)           (T)           (T)           (s)     
0000001,+200.0000E-03,+500.0000E-03,+5.000000E-03,-500.0000E-03,+1.000000E+00,0000201
0000002,+200.0000E-03,-500.0000E-03,+5.000000E-03,+500.0000E-03,+1.000000E+00,0000402

                           
    Field         Moment   
     (T)          (Am²)    
+499.3555E-03,+2.628504E-06
+494.5768E-03,+2.630003E-06
+489.4827E-03,+2.630391E-06
+484.5525E-03,+2.631374E-06
+479.4082E-03,+2.630180E-06
+474.5013E-03,+2.631226E-06
+469.5880E-03,+2.630566E-06
+464.4532E-03,+2.629814E-06
+459.5564E-03,+2.635495E-06
+454.4051E-03,+2.632131E-06
+449.4979E-03,+2.633914E-06
+444.6074E-03,+2.632635E-06
+439.4620E-03,+2.632238E-06
+434.5567E-03,+2.636213E-06
+429.6498E-03,+2.636889E-06
+424.5028E-03,+2.636545E-06
+419.6045E-03,+2.636961E-06
+414.4662E-03,+2.633143E-06
+409.5635E-03,+2.631923E-06
+404.6547E-03,+2.636561E-06
+399.5228E-03,+2.635147E-06
+394.6155E-03,+2.633707E-06
+389.4619E-03,+2.632988E-06
+384.5747E-03,+2.631808E-06
+379.6730E-03,+2.635447E-06
+374.5185E-03,+2.635390E-06
+369.6318E-03,+2.635956E-06
+364.4832E-03,+2.633420E-06
+359.5826E-03,+2.632021E-06
+354.6882E-03,+2.633418E-06
+349.5302E-03,+2.634429E-06
+344.6315E-03,+2.628784E-06
+339.7386E-03,+2.630327E-06
+334.5968E-03,+2.632998E-06
+329.6995E-03,+2.628085E-06
+324.5549E-03,+2.629370E-06
+319.6602E-03,+2.628266E-06
+314.7576E-03,+2.627712E-06
+309.6035E-03,+2.624608E-06
+304.7088E-03,+2.624783E-06
+299.5811E-03,+2.628727E-06
+294.6604E-03,+2.624536E-06
+289.7759E-03,+2.620782E-06
+284.6409E-03,+2.623921E-06
+279.7033E-03,+2.615261E-06
+274.5796E-03,+2.620325E-06
+269.6759E-03,+2.612749E-06
+264.7714E-03,+2.612889E-06
+259.6314E-03,+2.613618E-06
+254.7390E-03,+2.609019E-06
+249.8391E-03,+2.600850E-06
+244.6970E-03,+2.600332E-06
+239.7954E-03,+2.596482E-06
+234.6473E-03,+2.589704E-06
+229.7509E-03,+2.589197E-06
+224.8462E-03,+2.588015E-06
+219.7080E-03,+2.583344E-06
+214.8027E-03,+2.574650E-06
+209.6598E-03,+2.562860E-06
+204.7728E-03,+2.561917E-06
+199.8506E-03,+2.552586E-06
+194.7316E-03,+2.550446E-06
+189.8296E-03,+2.543544E-06
+184.6765E-03,+2.526214E-06
+179.7872E-03,+2.515751E-06
+174.8816E-03,+2.506133E-06
+169.7354E-03,+2.492091E-06
+164.8431E-03,+2.478399E-06
+159.7024E-03,+2.466486E-06
+154.7825E-03,+2.444785E-06
+149.8820E-03,+2.430374E-06
+144.7457E-03,+2.403649E-06
+139.8404E-03,+2.380026E-06
+134.9474E-03,+2.357937E-06
+129.8089E-03,+2.328481E-06
+124.9045E-03,+2.294596E-06
+119.7669E-03,+2.257485E-06
+114.8629E-03,+2.227936E-06
+109.9677E-03,+2.188878E-06
+104.8179E-03,+2.143030E-06
+99.92545E-03,+2.098127E-06
+94.78494E-03,+2.034336E-06
+89.87774E-03,+1.983973E-06
+84.98635E-03,+1.919384E-06
+79.84936E-03,+1.854350E-06
+74.92799E-03,+1.790758E-06
+69.78992E-03,+1.712592E-06
+64.89822E-03,+1.629716E-06
+59.99413E-03,+1.536870E-06
+54.85007E-03,+1.455977E-06
+49.94299E-03,+1.352201E-06
+45.04907E-03,+1.255152E-06
+39.90638E-03,+1.145944E-06
+35.01597E-03,+1.051053E-06
+29.84714E-03,+919.9770E-09
+24.96227E-03,+798.2964E-09
+20.06159E-03,+682.3860E-09
+14.91394E-03,+550.2761E-09
+10.03578E-03,+410.6974E-09
+4.899336E-03,+278.8557E-09
-14.93536E-06,+134.9724E-09
-4.889385E-03,-16.43027E-09
-10.02322E-03,-178.7346E-09
-14.91874E-03,-327.2133E-09
-20.07087E-03,-482.8601E-09
-24.96384E-03,-619.6322E-09
-29.87269E-03,-760.6040E-09
-35.03553E-03,-880.5558E-09
-39.91341E-03,-1.024678E-06
-45.05664E-03,-1.145820E-06
-49.95168E-03,-1.267310E-06
-54.86162E-03,-1.362680E-06
-59.98999E-03,-1.472275E-06
-64.89287E-03,-1.555732E-06
-69.78738E-03,-1.641753E-06
-74.91600E-03,-1.729395E-06
-79.84163E-03,-1.810253E-06
-84.97949E-03,-1.880097E-06
-89.86478E-03,-1.955485E-06
-94.78343E-03,-2.003252E-06
-99.92340E-03,-2.058093E-06
-104.8215E-03,-2.116735E-06
-109.9726E-03,-2.174744E-06
-114.8646E-03,-2.208964E-06
-119.7484E-03,-2.256094E-06
-124.8850E-03,-2.282115E-06
-129.8059E-03,-2.320536E-06
-134.9351E-03,-2.348608E-06
-139.8417E-03,-2.381190E-06
-144.7468E-03,-2.400854E-06
-149.8785E-03,-2.417564E-06
-154.7779E-03,-2.446489E-06
-159.6942E-03,-2.465205E-06
-164.8291E-03,-2.478969E-06
-169.7248E-03,-2.479392E-06
-174.8761E-03,-2.508563E-06
-179.7737E-03,-2.513577E-06
-184.6812E-03,-2.524000E-06
-189.8234E-03,-2.536957E-06
-194.7088E-03,-2.540593E-06
-199.8419E-03,-2.545924E-06
-204.7536E-03,-2.558049E-06
-209.6486E-03,-2.556875E-06
-214.7893E-03,-2.571105E-06
-219.6955E-03,-2.569070E-06
-224.8403E-03,-2.576054E-06
-229.7361E-03,-2.577140E-06
-234.6501E-03,-2.595463E-06
-239.7919E-03,-2.594058E-06
-244.6817E-03,-2.595698E-06
-249.8121E-03,-2.605721E-06
-254.7213E-03,-2.601957E-06
-259.6142E-03,-2.603360E-06
-264.7504E-03,-2.616224E-06
-269.6575E-03,-2.608655E-06
-274.5493E-03,-2.608513E-06
-279.6959E-03,-2.619267E-06
-284.6182E-03,-2.615657E-06
-289.7515E-03,-2.607478E-06
-294.6336E-03,-2.613781E-06
-299.5466E-03,-2.619896E-06
-304.6903E-03,-2.618949E-06
-309.5853E-03,-2.620908E-06
-314.7309E-03,-2.622585E-06
-319.6293E-03,-2.625318E-06
-324.5226E-03,-2.628401E-06
-329.6670E-03,-2.626528E-06
-334.5776E-03,-2.624658E-06
-339.7006E-03,-2.629673E-06
-344.6005E-03,-2.624708E-06
-349.5019E-03,-2.631187E-06
-354.6422E-03,-2.631881E-06
-359.5484E-03,-2.627200E-06
-364.4600E-03,-2.634891E-06
-369.5913E-03,-2.640211E-06
-374.4765E-03,-2.627065E-06
-379.6369E-03,-2.623607E-06
-384.5307E-03,-2.630289E-06
-389.4384E-03,-2.633695E-06
-394.5825E-03,-2.632834E-06
-399.4720E-03,-2.633496E-06
-404.6044E-03,-2.632020E-06
-409.5101E-03,-2.625823E-06
-414.4112E-03,-2.630666E-06
-419.5512E-03,-2.629151E-06
-424.4550E-03,-2.631045E-06
-429.5901E-03,-2.629768E-06
-434.4895E-03,-2.625636E-06
-439.3901E-03,-2.628854E-06
-444.5310E-03,-2.634760E-06
-449.4267E-03,-2.627273E-06
-454.3231E-03,-2.630339E-06
-459.4730E-03,-2.634306E-06
-464.3753E-03,-2.626072E-06
-469.5039E-03,-2.628678E-06
-474.4164E-03,-2.627094E-06
-479.3219E-03,-2.631085E-06
-484.4465E-03,-2.624659E-06
-489.3657E-03,-2.626192E-06
-494.4967E-03,-2.621740E-06
-499.4677E-03,-2.624667E-06

-499.4698E-03,-2.623679E-06
-494.7022E-03,-2.628882E-06
-489.5810E-03,-2.628442E-06
-484.6653E-03,-2.630924E-06
-479.5377E-03,-2.626161E-06
-474.6311E-03,-2.629426E-06
-469.7044E-03,-2.629352E-06
-464.5652E-03,-2.629438E-06
-459.6632E-03,-2.631418E-06
-454.5076E-03,-2.631454E-06
-449.6081E-03,-2.632053E-06
-444.7108E-03,-2.629277E-06
-439.5660E-03,-2.628693E-06
-434.6636E-03,-2.626894E-06
-429.7636E-03,-2.629592E-06
-424.6170E-03,-2.633892E-06
-419.7190E-03,-2.629234E-06
-414.5783E-03,-2.629892E-06
-409.6819E-03,-2.633037E-06
-404.7604E-03,-2.628928E-06
-399.6251E-03,-2.632026E-06
-394.7363E-03,-2.630637E-06
-389.5858E-03,-2.633770E-06
-384.6803E-03,-2.636769E-06
-379.7774E-03,-2.629890E-06
-374.6236E-03,-2.632006E-06
-369.7294E-03,-2.631102E-06
-364.5995E-03,-2.634247E-06
-359.6944E-03,-2.632424E-06
-354.7949E-03,-2.627982E-06
-349.6409E-03,-2.630641E-06
-344.7467E-03,-2.628298E-06
-339.8369E-03,-2.627888E-06
-334.7120E-03,-2.631904E-06
-329.7997E-03,-2.628373E-06
-324.6615E-03,-2.624922E-06
-319.7554E-03,-2.626838E-06
-314.8742E-03,-2.627379E-06
-309.7191E-03,-2.622325E-06
-304.8258E-03,-2.620915E-06
-299.6794E-03,-2.619751E-06
-294.7643E-03,-2.621442E-06
-289.8755E-03,-2.619613E-06
-284.7398E-03,-2.612954E-06
-279.8232E-03,-2.614113E-06
-274.6867E-03,-2.610464E-06
-269.7860E-03,-2.613398E-06
-264.8858E-03,-2.608115E-06
-259.7409E-03,-2.604070E-06
-254.8414E-03,-2.608320E-06
-249.9379E-03,-2.599223E-06
-244.8084E-03,-2.595231E-06
-239.9139E-03,-2.592534E-06
-234.7642E-03,-2.586902E-06
-229.8520E-03,-2.584513E-06
-224.9660E-03,-2.583181E-06
-219.8180E-03,-2.576536E-06
-214.9017E-03,-2.571339E-06
-209.7652E-03,-2.563974E-06
-204.8764E-03,-2.559165E-06
-199.9578E-03,-2.548417E-06
-194.8153E-03,-2.542829E-06
-189.9304E-03,-2.535794E-06
-184.7845E-03,-2.525010E-06
-179.8925E-03,-2.511612E-06
-174.9868E-03,-2.497632E-06
-169.8291E-03,-2.493623E-06
-164.9380E-03,-2.476404E-06
-159.8070E-03,-2.464596E-06
-154.8855E-03,-2.445416E-06
-149.9930E-03,-2.424615E-06
-144.8556E-03,-2.400393E-06
-139.9480E-03,-2.384034E-06
-135.0496E-03,-2.353584E-06
-129.9194E-03,-2.324513E-06
-125.0011E-03,-2.290476E-06
-119.8639E-03,-2.259808E-06
-114.9730E-03,-2.222114E-06
-110.0751E-03,-2.178322E-06
-104.9279E-03,-2.138094E-06
-100.0258E-03,-2.093547E-06
-94.89264E-03,-2.034007E-06
-89.97256E-03,-1.983905E-06
-85.08050E-03,-1.922341E-06
-79.95830E-03,-1.846770E-06
-75.03409E-03,-1.777829E-06
-69.89391E-03,-1.700780E-06
-65.00377E-03,-1.622382E-06
-60.10542E-03,-1.530700E-06
-54.97115E-03,-1.447671E-06
-50.05441E-03,-1.350681E-06
-45.15750E-03,-1.256155E-06
-40.01872E-03,-1.132052E-06
-35.13193E-03,-1.041185E-06
-29.97029E-03,-912.7659E-09
-25.06492E-03,-805.5900E-09
-20.17324E-03,-678.4222E-09
-15.02338E-03,-534.0924E-09
-10.12227E-03,-419.1256E-09
-4.984262E-03,-268.6676E-09
-114.9366E-06,-126.4100E-09
+4.797212E-03,+22.89021E-09
+9.932234E-03,+172.5488E-09
+14.81415E-03,+333.0443E-09
+19.95892E-03,+480.8371E-09
+24.85532E-03,+629.0229E-09
+29.73682E-03,+771.1932E-09
+34.91407E-03,+913.0606E-09
+39.81440E-03,+1.046182E-06
+44.94153E-03,+1.169731E-06
+49.85033E-03,+1.275955E-06
+54.74859E-03,+1.377632E-06
+59.88938E-03,+1.475586E-06
+64.78681E-03,+1.563793E-06
+69.69022E-03,+1.661355E-06
+74.82293E-03,+1.734612E-06
+79.74102E-03,+1.816839E-06
+84.87706E-03,+1.901191E-06
+89.77389E-03,+1.951536E-06
+94.67588E-03,+2.009024E-06
+99.80835E-03,+2.062430E-06
+104.7102E-03,+2.123281E-06
+109.8612E-03,+2.166737E-06
+114.7628E-03,+2.216564E-06
+119.6562E-03,+2.257142E-06
+124.7977E-03,+2.285731E-06
+129.6957E-03,+2.325582E-06
+134.8315E-03,+2.367178E-06
+139.7404E-03,+2.377286E-06
+144.6323E-03,+2.404109E-06
+149.7725E-03,+2.428363E-06
+154.6801E-03,+2.454565E-06
+159.5894E-03,+2.461800E-06
+164.7279E-03,+2.480538E-06
+169.6124E-03,+2.485776E-06
+174.7631E-03,+2.502723E-06
+179.6722E-03,+2.520093E-06
+184.5473E-03,+2.529497E-06
+189.7112E-03,+2.539324E-06
+194.6172E-03,+2.542680E-06
+199.7488E-03,+2.550276E-06
+204.6502E-03,+2.564756E-06
+209.5513E-03,+2.561570E-06
+214.6828E-03,+2.570426E-06
+219.5968E-03,+2.579024E-06
+224.7287E-03,+2.584664E-06
+229.6321E-03,+2.588945E-06
+234.5257E-03,+2.595305E-06
+239.6812E-03,+2.583236E-06
+244.5797E-03,+2.600291E-06
+249.7145E-03,+2.613428E-06
+254.6156E-03,+2.613170E-06
+259.5029E-03,+2.604188E-06
+264.6523E-03,+2.609102E-06
+269.5609E-03,+2.612163E-06
+274.4528E-03,+2.614443E-06
+279.5871E-03,+2.621553E-06
+284.5117E-03,+2.620533E-06
+289.6515E-03,+2.620232E-06
+294.5342E-03,+2.623453E-06
+299.4443E-03,+2.625855E-06
+304.5792E-03,+2.626365E-06
+309.4640E-03,+2.625709E-06
+314.6214E-03,+2.627715E-06
+319.5261E-03,+2.628258E-06
+324.4175E-03,+2.633663E-06
+329.5622E-03,+2.634845E-06
+334.4538E-03,+2.630587E-06
+339.5880E-03,+2.628961E-06
+344.4951E-03,+2.629866E-06
+349.3964E-03,+2.631268E-06
+354.5364E-03,+2.633275E-06
+359.4324E-03,+2.632152E-06
+364.3469E-03,+2.641259E-06
+369.4684E-03,+2.627466E-06
+374.3733E-03,+2.635154E-06
+379.5281E-03,+2.632475E-06
+384.4270E-03,+2.630584E-06
+389.3105E-03,+2.635107E-06
+394.4643E-03,+2.640035E-06
+399.3638E-03,+2.638143E-06
+404.4948E-03,+2.640983E-06
+409.4051E-03,+2.640907E-06
+414.3088E-03,+2.637191E-06
+419.4406E-03,+2.629963E-06
+424.3385E-03,+2.631580E-06
+429.4705E-03,+2.633034E-06
+434.3784E-03,+2.633778E-06
+439.2790E-03,+2.627525E-06
+444.4239E-03,+2.638330E-06
+449.3088E-03,+2.633469E-06
+454.2130E-03,+2.633330E-06
+459.3531E-03,+2.634513E-06
+464.2527E-03,+2.631598E-06
+469.3882E-03,+2.631381E-06
+474.2934E-03,+2.636217E-06
+479.1830E-03,+2.634325E-06
+484.3175E-03,+2.629269E-06
+489.2464E-03,+2.629351E-06
+494.3778E-03,+2.635553E-06
+499.3460E-03,+2.629185E-06

MicroMag 2900/3900 Data File ends
