MicroMag 2900/3900 Data File (Series 0016.002)
Direct moment vs. field; Hysteresis loop

INSTRUMENT
Configuration                   VSM
Temperature control             None
Hardware version                0004
Software version                06/08/2012
Units of measure                Hybrid SI
Temperature in                  Kelvin

SAMPLE
Mass                            N/A
Volume                          N/A
Demagnetizing factor            N/A

SETTINGS
Field range                    +1.000000E+00
Field (command)                 N/A
Moment range                   +5.000000E-06
Averaging time                 +200.0000E-03
Temperature (command)           N/A
Tmprtr difference correction    No
Orientation                     0.000000E+00
Vibration amplitude             1.0
Calibration factor             +3.570920E+00
Operating frequency            +83.00000E+00
Sweep mode                      Discrete
Pause after sweep increment    +300.0000E-03

MEASUREMENT
Description                    "DQ15-33B1"
Field (measured)                N/A
Temperature (measured)          N/A
Averages (completed)            1
Measured on                     10/29/2016  16:21
Elapsed time                   +207.0774E+00

PROCESSING
Background subtraction          No
Delta-m processing              N/A
Demagnetizing factor            No
Normalization                   No
Normalization factor            N/A
Offset (field)                  No
Offset (moment)                 No
Pole saturation                 No
Slope correction                No

VIEWPORT
Left                           -500.0000E-03
Right                          +500.0000E-03
Bottom                         -5.000000E-06
Top                            +5.000000E-06
Show X-axis?                    Yes
Show Y-axis?                    Yes

CHARACTERIZATION
Initial slope                   N/A
Saturation                     +2.640581E-06
Remanence                      +129.4355E-09
Coercivity                     +4.140801E-03
S*                             +379.2509E-06

SCRIPT
Averages (target)               1
Averaging time                 +200.0000E-03
Demagnetize?                    No
Maximum field                  +500.0000E-03
Field increment                +5.000000E-03
Hysteresis loop?                Yes
Initial magnetization?          No
Pause                          +1.000000E+00
Saturate before measuring?      No
Number of segments              2
Number of data                  402

Segment   Averaging      Initial        Field         Final                    Final 
 Number      Time         Field       Increment       Field         Pause      Index 
             (s)           (T)           (T)           (T)           (s)     
0000001,+200.0000E-03,+500.0000E-03,+5.000000E-03,-500.0000E-03,+1.000000E+00,0000201
0000002,+200.0000E-03,-500.0000E-03,+5.000000E-03,+500.0000E-03,+1.000000E+00,0000402

                           
    Field         Moment   
     (T)          (Am²)    
+499.3413E-03,+2.635601E-06
+494.5684E-03,+2.643059E-06
+489.4662E-03,+2.643361E-06
+484.5484E-03,+2.644845E-06
+479.4115E-03,+2.646627E-06
+474.4959E-03,+2.649614E-06
+469.5797E-03,+2.647485E-06
+464.4446E-03,+2.647646E-06
+459.5430E-03,+2.649481E-06
+454.4008E-03,+2.648681E-06
+449.4955E-03,+2.645324E-06
+444.6063E-03,+2.646657E-06
+439.4625E-03,+2.650383E-06
+434.5426E-03,+2.649338E-06
+429.6366E-03,+2.645331E-06
+424.5058E-03,+2.650828E-06
+419.5959E-03,+2.646793E-06
+414.4697E-03,+2.648878E-06
+409.5577E-03,+2.650555E-06
+404.6507E-03,+2.647419E-06
+399.5118E-03,+2.648504E-06
+394.6083E-03,+2.650359E-06
+389.4536E-03,+2.651023E-06
+384.5751E-03,+2.649041E-06
+379.6744E-03,+2.649088E-06
+374.5160E-03,+2.649639E-06
+369.6201E-03,+2.648513E-06
+364.4820E-03,+2.650692E-06
+359.5733E-03,+2.649972E-06
+354.6778E-03,+2.651938E-06
+349.5303E-03,+2.649403E-06
+344.6338E-03,+2.649154E-06
+339.7325E-03,+2.647024E-06
+334.5939E-03,+2.643879E-06
+329.6935E-03,+2.641321E-06
+324.5434E-03,+2.644349E-06
+319.6439E-03,+2.643585E-06
+314.7531E-03,+2.639754E-06
+309.6032E-03,+2.641036E-06
+304.7101E-03,+2.637398E-06
+299.5716E-03,+2.639552E-06
+294.6683E-03,+2.637133E-06
+289.7751E-03,+2.634045E-06
+284.6357E-03,+2.631669E-06
+279.7114E-03,+2.634200E-06
+274.5735E-03,+2.635321E-06
+269.6764E-03,+2.625026E-06
+264.7668E-03,+2.621515E-06
+259.6283E-03,+2.626189E-06
+254.7306E-03,+2.620421E-06
+249.8236E-03,+2.617589E-06
+244.6854E-03,+2.620226E-06
+239.7902E-03,+2.605870E-06
+234.6427E-03,+2.602310E-06
+229.7501E-03,+2.601617E-06
+224.8568E-03,+2.596516E-06
+219.7034E-03,+2.592052E-06
+214.7976E-03,+2.591502E-06
+209.6639E-03,+2.588112E-06
+204.7628E-03,+2.574415E-06
+199.8465E-03,+2.566055E-06
+194.7310E-03,+2.559540E-06
+189.8255E-03,+2.552125E-06
+184.6701E-03,+2.540552E-06
+179.7919E-03,+2.529123E-06
+174.8872E-03,+2.515904E-06
+169.7332E-03,+2.507765E-06
+164.8342E-03,+2.495984E-06
+159.7014E-03,+2.476060E-06
+154.7858E-03,+2.463024E-06
+149.8881E-03,+2.438002E-06
+144.7384E-03,+2.417753E-06
+139.8387E-03,+2.400504E-06
+134.9417E-03,+2.377558E-06
+129.8064E-03,+2.339609E-06
+124.9063E-03,+2.309504E-06
+119.7589E-03,+2.282819E-06
+114.8595E-03,+2.239064E-06
+109.9648E-03,+2.195534E-06
+104.8114E-03,+2.157736E-06
+99.92600E-03,+2.093591E-06
+94.78948E-03,+2.049112E-06
+89.86738E-03,+1.999416E-06
+84.98213E-03,+1.936262E-06
+79.85776E-03,+1.857872E-06
+74.91835E-03,+1.792700E-06
+69.79756E-03,+1.715759E-06
+64.89748E-03,+1.637457E-06
+59.99143E-03,+1.551625E-06
+54.84759E-03,+1.456011E-06
+49.94690E-03,+1.369382E-06
+45.03696E-03,+1.262978E-06
+39.91578E-03,+1.161666E-06
+35.01724E-03,+1.042665E-06
+29.85208E-03,+935.9697E-09
+24.96584E-03,+810.0944E-09
+20.05686E-03,+692.3884E-09
+14.90502E-03,+556.4283E-09
+10.03154E-03,+426.4329E-09
+4.902408E-03,+275.8253E-09
-20.04761E-06,+137.9167E-09
-4.880211E-03,-23.72836E-09
-10.01732E-03,-172.8691E-09
-14.91246E-03,-323.5721E-09
-20.06632E-03,-484.7601E-09
-24.95988E-03,-624.2954E-09
-29.86657E-03,-758.7175E-09
-35.02589E-03,-902.4059E-09
-39.90597E-03,-1.020997E-06
-45.04761E-03,-1.143143E-06
-49.94878E-03,-1.262865E-06
-54.85399E-03,-1.372412E-06
-60.00018E-03,-1.471324E-06
-64.89005E-03,-1.569849E-06
-69.78910E-03,-1.659914E-06
-74.92988E-03,-1.741591E-06
-79.84342E-03,-1.827435E-06
-84.98239E-03,-1.893242E-06
-89.86475E-03,-1.963410E-06
-94.77328E-03,-2.025952E-06
-99.91320E-03,-2.074500E-06
-104.8184E-03,-2.126013E-06
-109.9685E-03,-2.176199E-06
-114.8652E-03,-2.219485E-06
-119.7570E-03,-2.260778E-06
-124.8959E-03,-2.293504E-06
-129.8067E-03,-2.331434E-06
-134.9281E-03,-2.349210E-06
-139.8442E-03,-2.388010E-06
-144.7480E-03,-2.404739E-06
-149.8707E-03,-2.432299E-06
-154.7773E-03,-2.458180E-06
-159.7002E-03,-2.466917E-06
-164.8305E-03,-2.473715E-06
-169.7246E-03,-2.503163E-06
-174.8722E-03,-2.517248E-06
-179.7750E-03,-2.527210E-06
-184.6741E-03,-2.545010E-06
-189.8211E-03,-2.546822E-06
-194.7021E-03,-2.568055E-06
-199.8367E-03,-2.563621E-06
-204.7559E-03,-2.577594E-06
-209.6483E-03,-2.572570E-06
-214.7815E-03,-2.591268E-06
-219.6950E-03,-2.581771E-06
-224.8395E-03,-2.594933E-06
-229.7231E-03,-2.597418E-06
-234.6273E-03,-2.603536E-06
-239.7862E-03,-2.602890E-06
-244.6907E-03,-2.612410E-06
-249.8095E-03,-2.608790E-06
-254.7171E-03,-2.615522E-06
-259.6076E-03,-2.612494E-06
-264.7532E-03,-2.627557E-06
-269.6535E-03,-2.615192E-06
-274.5431E-03,-2.623048E-06
-279.6899E-03,-2.624237E-06
-284.6019E-03,-2.627070E-06
-289.7471E-03,-2.628959E-06
-294.6306E-03,-2.626280E-06
-299.5449E-03,-2.633277E-06
-304.6774E-03,-2.631146E-06
-309.5838E-03,-2.635187E-06
-314.7214E-03,-2.639375E-06
-319.6158E-03,-2.645714E-06
-324.5095E-03,-2.643422E-06
-329.6560E-03,-2.647418E-06
-334.5700E-03,-2.639421E-06
-339.6944E-03,-2.643894E-06
-344.5882E-03,-2.642950E-06
-349.4952E-03,-2.642097E-06
-354.6438E-03,-2.641781E-06
-359.5424E-03,-2.644114E-06
-364.4544E-03,-2.638790E-06
-369.5849E-03,-2.639832E-06
-374.4740E-03,-2.640161E-06
-379.6235E-03,-2.645265E-06
-384.5234E-03,-2.637123E-06
-389.4202E-03,-2.648790E-06
-394.5759E-03,-2.643198E-06
-399.4597E-03,-2.644488E-06
-404.5991E-03,-2.647572E-06
-409.5182E-03,-2.643732E-06
-414.4154E-03,-2.648203E-06
-419.5424E-03,-2.638835E-06
-424.4438E-03,-2.647328E-06
-429.5782E-03,-2.642421E-06
-434.4862E-03,-2.646157E-06
-439.3825E-03,-2.644910E-06
-444.5284E-03,-2.645875E-06
-449.4204E-03,-2.640520E-06
-454.3115E-03,-2.638915E-06
-459.4570E-03,-2.640958E-06
-464.3630E-03,-2.645060E-06
-469.4922E-03,-2.642088E-06
-474.4049E-03,-2.639851E-06
-479.3055E-03,-2.643613E-06
-484.4318E-03,-2.643857E-06
-489.3539E-03,-2.637533E-06
-494.4874E-03,-2.638197E-06
-499.4545E-03,-2.637772E-06

-499.4613E-03,-2.640701E-06
-494.6902E-03,-2.638141E-06
-489.5804E-03,-2.641626E-06
-484.6536E-03,-2.640868E-06
-479.5319E-03,-2.640171E-06
-474.6246E-03,-2.636259E-06
-469.7102E-03,-2.641376E-06
-464.5493E-03,-2.642352E-06
-459.6548E-03,-2.641070E-06
-454.5018E-03,-2.641774E-06
-449.6101E-03,-2.638728E-06
-444.7088E-03,-2.645391E-06
-439.5637E-03,-2.641652E-06
-434.6526E-03,-2.641923E-06
-429.7459E-03,-2.638500E-06
-424.6119E-03,-2.643921E-06
-419.7141E-03,-2.641851E-06
-414.5689E-03,-2.644133E-06
-409.6745E-03,-2.645218E-06
-404.7580E-03,-2.646143E-06
-399.6242E-03,-2.644963E-06
-394.7377E-03,-2.645165E-06
-389.5795E-03,-2.647614E-06
-384.6830E-03,-2.646596E-06
-379.7746E-03,-2.642635E-06
-374.6267E-03,-2.642407E-06
-369.7352E-03,-2.643073E-06
-364.5993E-03,-2.642557E-06
-359.6838E-03,-2.645797E-06
-354.7803E-03,-2.640390E-06
-349.6400E-03,-2.643257E-06
-344.7353E-03,-2.644621E-06
-339.8321E-03,-2.640752E-06
-334.7099E-03,-2.637336E-06
-329.7973E-03,-2.637918E-06
-324.6459E-03,-2.637254E-06
-319.7472E-03,-2.636015E-06
-314.8586E-03,-2.638392E-06
-309.7157E-03,-2.638344E-06
-304.8157E-03,-2.635465E-06
-299.6758E-03,-2.632069E-06
-294.7542E-03,-2.633790E-06
-289.8686E-03,-2.629349E-06
-284.7350E-03,-2.628822E-06
-279.8042E-03,-2.625562E-06
-274.6747E-03,-2.626319E-06
-269.7761E-03,-2.617924E-06
-264.8838E-03,-2.615836E-06
-259.7431E-03,-2.610764E-06
-254.8389E-03,-2.615357E-06
-249.9334E-03,-2.609593E-06
-244.8078E-03,-2.606990E-06
-239.9029E-03,-2.603897E-06
-234.7630E-03,-2.596949E-06
-229.8599E-03,-2.596347E-06
-224.9609E-03,-2.591105E-06
-219.8200E-03,-2.588833E-06
-214.9115E-03,-2.575683E-06
-209.7666E-03,-2.578287E-06
-204.8616E-03,-2.568844E-06
-199.9524E-03,-2.565319E-06
-194.8157E-03,-2.559257E-06
-189.9308E-03,-2.545353E-06
-184.7825E-03,-2.535363E-06
-179.8880E-03,-2.522907E-06
-174.9813E-03,-2.515218E-06
-169.8436E-03,-2.496401E-06
-164.9477E-03,-2.491715E-06
-159.7987E-03,-2.473573E-06
-154.8908E-03,-2.452049E-06
-149.9885E-03,-2.437682E-06
-144.8407E-03,-2.412717E-06
-139.9435E-03,-2.385127E-06
-135.0279E-03,-2.366883E-06
-129.9161E-03,-2.337844E-06
-125.0075E-03,-2.311354E-06
-119.8579E-03,-2.269425E-06
-114.9671E-03,-2.229438E-06
-110.0616E-03,-2.190758E-06
-104.9278E-03,-2.144963E-06
-100.0333E-03,-2.096604E-06
-94.88259E-03,-2.048351E-06
-89.97725E-03,-1.986162E-06
-85.08606E-03,-1.927466E-06
-79.94924E-03,-1.857762E-06
-75.03100E-03,-1.792575E-06
-69.89941E-03,-1.708749E-06
-64.99933E-03,-1.624554E-06
-60.10559E-03,-1.542868E-06
-54.95822E-03,-1.448449E-06
-50.05366E-03,-1.357373E-06
-45.15411E-03,-1.258669E-06
-40.02154E-03,-1.143001E-06
-35.12537E-03,-1.043488E-06
-29.97018E-03,-926.6924E-09
-25.06955E-03,-802.0838E-09
-20.17098E-03,-681.4042E-09
-15.01857E-03,-553.0162E-09
-10.12590E-03,-408.0771E-09
-4.993904E-03,-263.5328E-09
-114.2125E-06,-123.7344E-09
+4.801787E-03,+20.09919E-09
+9.922880E-03,+180.8978E-09
+14.80856E-03,+331.8537E-09
+19.94876E-03,+489.3500E-09
+24.85119E-03,+630.7570E-09
+29.74894E-03,+770.1794E-09
+34.91109E-03,+913.4046E-09
+39.81212E-03,+1.032263E-06
+44.94090E-03,+1.156050E-06
+49.84006E-03,+1.281191E-06
+54.74491E-03,+1.374217E-06
+59.88199E-03,+1.481009E-06
+64.79009E-03,+1.583514E-06
+69.68986E-03,+1.666368E-06
+74.82398E-03,+1.746657E-06
+79.73968E-03,+1.837755E-06
+84.87950E-03,+1.908176E-06
+89.77091E-03,+1.948684E-06
+94.68463E-03,+2.023632E-06
+99.80201E-03,+2.087835E-06
+104.7128E-03,+2.137685E-06
+109.8640E-03,+2.185364E-06
+114.7591E-03,+2.225442E-06
+119.6635E-03,+2.264778E-06
+124.7998E-03,+2.306426E-06
+129.6972E-03,+2.333256E-06
+134.8346E-03,+2.356741E-06
+139.7293E-03,+2.392197E-06
+144.6314E-03,+2.412348E-06
+149.7652E-03,+2.444823E-06
+154.6597E-03,+2.460288E-06
+159.5946E-03,+2.462926E-06
+164.7247E-03,+2.489477E-06
+169.6157E-03,+2.498510E-06
+174.7690E-03,+2.514732E-06
+179.6746E-03,+2.534398E-06
+184.5562E-03,+2.534559E-06
+189.7029E-03,+2.540676E-06
+194.6038E-03,+2.563607E-06
+199.7322E-03,+2.569683E-06
+204.6356E-03,+2.567487E-06
+209.5382E-03,+2.577587E-06
+214.6826E-03,+2.588934E-06
+219.5878E-03,+2.596526E-06
+224.7230E-03,+2.599138E-06
+229.6325E-03,+2.600693E-06
+234.5164E-03,+2.596058E-06
+239.6661E-03,+2.619606E-06
+244.5645E-03,+2.611738E-06
+249.7148E-03,+2.613937E-06
+254.6133E-03,+2.608549E-06
+259.5073E-03,+2.622579E-06
+264.6410E-03,+2.631750E-06
+269.5462E-03,+2.625614E-06
+274.4466E-03,+2.628152E-06
+279.5782E-03,+2.623575E-06
+284.5055E-03,+2.632029E-06
+289.6478E-03,+2.630647E-06
+294.5065E-03,+2.635157E-06
+299.4407E-03,+2.629153E-06
+304.5772E-03,+2.635943E-06
+309.4563E-03,+2.639790E-06
+314.6124E-03,+2.640681E-06
+319.5154E-03,+2.640437E-06
+324.4163E-03,+2.646073E-06
+329.5617E-03,+2.650357E-06
+334.4471E-03,+2.648908E-06
+339.5847E-03,+2.647947E-06
+344.4879E-03,+2.645367E-06
+349.3833E-03,+2.641457E-06
+354.5249E-03,+2.643636E-06
+359.4368E-03,+2.651932E-06
+364.3374E-03,+2.647262E-06
+369.4772E-03,+2.650954E-06
+374.3679E-03,+2.650104E-06
+379.5209E-03,+2.643199E-06
+384.4226E-03,+2.647909E-06
+389.3035E-03,+2.645075E-06
+394.4449E-03,+2.653905E-06
+399.3519E-03,+2.643713E-06
+404.4903E-03,+2.649509E-06
+409.3897E-03,+2.655306E-06
+414.2955E-03,+2.654948E-06
+419.4337E-03,+2.653068E-06
+424.3333E-03,+2.647441E-06
+429.4658E-03,+2.646058E-06
+434.3655E-03,+2.646644E-06
+439.2693E-03,+2.650449E-06
+444.4252E-03,+2.648708E-06
+449.3091E-03,+2.650364E-06
+454.2093E-03,+2.641700E-06
+459.3399E-03,+2.644005E-06
+464.2394E-03,+2.647690E-06
+469.3758E-03,+2.649578E-06
+474.2906E-03,+2.646459E-06
+479.1786E-03,+2.651140E-06
+484.3208E-03,+2.640328E-06
+489.2335E-03,+2.644058E-06
+494.3725E-03,+2.643652E-06
+499.3373E-03,+2.641721E-06

MicroMag 2900/3900 Data File ends
