MicroMag 2900/3900 Data File (Series 0016.002)
Direct moment vs. field; Hysteresis loop

INSTRUMENT
Configuration                   VSM
Temperature control             None
Hardware version                0004
Software version                06/08/2012
Units of measure                Hybrid SI
Temperature in                  Kelvin

SAMPLE
Mass                            N/A
Volume                          N/A
Demagnetizing factor            N/A

SETTINGS
Field range                    +1.000000E+00
Field (command)                 N/A
Moment range                   +5.000000E-06
Averaging time                 +100.0000E-03
Temperature (command)           N/A
Tmprtr difference correction    No
Orientation                     0.000000E+00
Vibration amplitude             1.0
Calibration factor             +3.570920E+00
Operating frequency            +83.00000E+00
Sweep mode                      Discrete
Pause after sweep increment    +300.0000E-03

MEASUREMENT
Description                    "DQ15-33B1"
Field (measured)                N/A
Temperature (measured)          N/A
Averages (completed)            1
Measured on                     10/29/2016  12:43
Elapsed time                   +166.8137E+00

PROCESSING
Background subtraction          No
Delta-m processing              N/A
Demagnetizing factor            No
Normalization                   No
Normalization factor            N/A
Offset (field)                  No
Offset (moment)                 No
Pole saturation                 No
Slope correction                No

VIEWPORT
Left                           -500.0000E-03
Right                          +500.0000E-03
Bottom                         -5.000000E-06
Top                            +5.000000E-06
Show X-axis?                    Yes
Show Y-axis?                    Yes

CHARACTERIZATION
Initial slope                   N/A
Saturation                     +2.597563E-06
Remanence                      +130.5570E-09
Coercivity                     +3.952250E-03
S*                             -4.226032E-09

SCRIPT
Averages (target)               1
Averaging time                 +100.0000E-03
Demagnetize?                    No
Maximum field                  +500.0000E-03
Field increment                +5.000000E-03
Hysteresis loop?                Yes
Initial magnetization?          No
Pause                          +1.000000E+00
Saturate before measuring?      No
Number of segments              2
Number of data                  402

Segment   Averaging      Initial        Field         Final                    Final 
 Number      Time         Field       Increment       Field         Pause      Index 
             (s)           (T)           (T)           (T)           (s)     
0000001,+100.0000E-03,+500.0000E-03,+5.000000E-03,-500.0000E-03,+1.000000E+00,0000201
0000002,+100.0000E-03,-500.0000E-03,+5.000000E-03,+500.0000E-03,+1.000000E+00,0000402

                           
    Field         Moment   
     (T)          (Am²)    
+499.3663E-03,+2.601239E-06
+494.6176E-03,+2.603038E-06
+489.5135E-03,+2.594848E-06
+484.6090E-03,+2.607657E-06
+479.4725E-03,+2.602605E-06
+474.5544E-03,+2.600676E-06
+469.6398E-03,+2.604820E-06
+464.5043E-03,+2.601440E-06
+459.6017E-03,+2.600653E-06
+454.4547E-03,+2.605369E-06
+449.5424E-03,+2.603517E-06
+444.6610E-03,+2.608891E-06
+439.5170E-03,+2.600737E-06
+434.5885E-03,+2.604228E-06
+429.6967E-03,+2.601345E-06
+424.5552E-03,+2.607158E-06
+419.6509E-03,+2.604971E-06
+414.5123E-03,+2.606965E-06
+409.6085E-03,+2.599514E-06
+404.7016E-03,+2.605183E-06
+399.5612E-03,+2.605532E-06
+394.6477E-03,+2.605130E-06
+389.4869E-03,+2.605733E-06
+384.6264E-03,+2.605559E-06
+379.7077E-03,+2.605214E-06
+374.5603E-03,+2.607455E-06
+369.6649E-03,+2.602938E-06
+364.5408E-03,+2.606056E-06
+359.6228E-03,+2.604298E-06
+354.7196E-03,+2.602085E-06
+349.5781E-03,+2.604472E-06
+344.6652E-03,+2.601648E-06
+339.7531E-03,+2.603766E-06
+334.6218E-03,+2.602570E-06
+329.7410E-03,+2.602327E-06
+324.5798E-03,+2.595569E-06
+319.6929E-03,+2.602459E-06
+314.7910E-03,+2.601137E-06
+309.6398E-03,+2.600166E-06
+304.7481E-03,+2.599441E-06
+299.6110E-03,+2.599040E-06
+294.6901E-03,+2.596835E-06
+289.8076E-03,+2.597014E-06
+284.6661E-03,+2.590756E-06
+279.7379E-03,+2.585012E-06
+274.6030E-03,+2.590560E-06
+269.7128E-03,+2.588376E-06
+264.7887E-03,+2.583914E-06
+259.6672E-03,+2.581765E-06
+254.7631E-03,+2.578252E-06
+249.8673E-03,+2.572474E-06
+244.7268E-03,+2.570799E-06
+239.8124E-03,+2.567515E-06
+234.6757E-03,+2.561763E-06
+229.7857E-03,+2.558298E-06
+224.8825E-03,+2.555026E-06
+219.7434E-03,+2.551237E-06
+214.8356E-03,+2.548469E-06
+209.6966E-03,+2.544425E-06
+204.7777E-03,+2.538370E-06
+199.8763E-03,+2.529532E-06
+194.7667E-03,+2.520626E-06
+189.8434E-03,+2.515118E-06
+184.7070E-03,+2.505846E-06
+179.8153E-03,+2.488562E-06
+174.9099E-03,+2.475812E-06
+169.7476E-03,+2.461122E-06
+164.8568E-03,+2.450853E-06
+159.7250E-03,+2.446411E-06
+154.8066E-03,+2.423000E-06
+149.9002E-03,+2.393114E-06
+144.7640E-03,+2.372708E-06
+139.8569E-03,+2.363472E-06
+134.9580E-03,+2.333739E-06
+129.8169E-03,+2.304811E-06
+124.9227E-03,+2.274039E-06
+119.7834E-03,+2.246468E-06
+114.8969E-03,+2.212392E-06
+109.9798E-03,+2.162202E-06
+104.8265E-03,+2.118313E-06
+99.94467E-03,+2.078178E-06
+94.80543E-03,+2.018527E-06
+89.88979E-03,+1.955054E-06
+84.99835E-03,+1.912203E-06
+79.85303E-03,+1.845903E-06
+74.93668E-03,+1.765500E-06
+69.80947E-03,+1.689516E-06
+64.89864E-03,+1.601612E-06
+59.99878E-03,+1.532601E-06
+54.87411E-03,+1.430159E-06
+49.95693E-03,+1.326998E-06
+45.05081E-03,+1.244415E-06
+39.92843E-03,+1.139918E-06
+35.03073E-03,+1.023879E-06
+29.87232E-03,+903.5771E-09
+24.98397E-03,+794.5914E-09
+20.07168E-03,+672.8420E-09
+14.92515E-03,+531.0095E-09
+10.04751E-03,+406.5365E-09
+4.913413E-03,+264.0814E-09
+9.722199E-06,+136.6774E-09
-4.874587E-03,-25.84948E-09
-10.01409E-03,-167.6832E-09
-14.91058E-03,-315.5106E-09
-20.05147E-03,-464.6328E-09
-24.94827E-03,-624.2287E-09
-29.84788E-03,-752.7971E-09
-35.02081E-03,-876.8598E-09
-39.90432E-03,-1.018015E-06
-45.03545E-03,-1.122199E-06
-49.93840E-03,-1.228281E-06
-54.84087E-03,-1.344140E-06
-59.99017E-03,-1.472856E-06
-64.88844E-03,-1.540762E-06
-69.79374E-03,-1.627260E-06
-74.92530E-03,-1.723266E-06
-79.84079E-03,-1.768855E-06
-84.97687E-03,-1.871284E-06
-89.86365E-03,-1.928952E-06
-94.78141E-03,-1.980984E-06
-99.90122E-03,-2.048865E-06
-104.8166E-03,-2.103294E-06
-109.9641E-03,-2.143109E-06
-114.8649E-03,-2.178090E-06
-119.7514E-03,-2.213385E-06
-124.8838E-03,-2.245827E-06
-129.8015E-03,-2.308125E-06
-134.9338E-03,-2.331454E-06
-139.8300E-03,-2.355765E-06
-144.7339E-03,-2.374921E-06
-149.8690E-03,-2.392726E-06
-154.7719E-03,-2.410362E-06
-159.6937E-03,-2.417885E-06
-164.8299E-03,-2.444948E-06
-169.7219E-03,-2.461261E-06
-174.8682E-03,-2.474761E-06
-179.7771E-03,-2.480566E-06
-184.6743E-03,-2.505112E-06
-189.8156E-03,-2.505796E-06
-194.7002E-03,-2.509727E-06
-199.8407E-03,-2.536024E-06
-204.7521E-03,-2.530393E-06
-209.6525E-03,-2.521166E-06
-214.7914E-03,-2.557533E-06
-219.6992E-03,-2.551220E-06
-224.8334E-03,-2.540055E-06
-229.7313E-03,-2.555386E-06
-234.6413E-03,-2.569579E-06
-239.7889E-03,-2.563373E-06
-244.6817E-03,-2.562319E-06
-249.8085E-03,-2.561972E-06
-254.7203E-03,-2.580163E-06
-259.6165E-03,-2.586341E-06
-264.7503E-03,-2.588010E-06
-269.6699E-03,-2.576277E-06
-274.5582E-03,-2.589716E-06
-279.6937E-03,-2.585327E-06
-284.6019E-03,-2.580703E-06
-289.7464E-03,-2.589482E-06
-294.6308E-03,-2.594492E-06
-299.5503E-03,-2.586884E-06
-304.6888E-03,-2.588951E-06
-309.5784E-03,-2.603499E-06
-314.7314E-03,-2.607514E-06
-319.6301E-03,-2.608169E-06
-324.5147E-03,-2.597860E-06
-329.6729E-03,-2.604536E-06
-334.5705E-03,-2.592254E-06
-339.7049E-03,-2.600135E-06
-344.6013E-03,-2.608183E-06
-349.5047E-03,-2.604616E-06
-354.6483E-03,-2.596291E-06
-359.5546E-03,-2.599897E-06
-364.4571E-03,-2.608248E-06
-369.5891E-03,-2.595137E-06
-374.4874E-03,-2.606086E-06
-379.6450E-03,-2.596400E-06
-384.5312E-03,-2.595372E-06
-389.4349E-03,-2.600824E-06
-394.5893E-03,-2.602970E-06
-399.4654E-03,-2.605268E-06
-404.6054E-03,-2.610617E-06
-409.5229E-03,-2.610823E-06
-414.4211E-03,-2.603541E-06
-419.5449E-03,-2.597779E-06
-424.4560E-03,-2.597827E-06
-429.5828E-03,-2.601559E-06
-434.4903E-03,-2.606324E-06
-439.4002E-03,-2.602620E-06
-444.5523E-03,-2.594817E-06
-449.4314E-03,-2.602920E-06
-454.3231E-03,-2.606402E-06
-459.4837E-03,-2.602407E-06
-464.3686E-03,-2.598657E-06
-469.5033E-03,-2.604540E-06
-474.4229E-03,-2.602127E-06
-479.3325E-03,-2.604029E-06
-484.4396E-03,-2.593732E-06
-489.3718E-03,-2.596430E-06
-494.5112E-03,-2.598435E-06
-499.4855E-03,-2.598856E-06

-499.4987E-03,-2.594216E-06
-494.7286E-03,-2.592076E-06
-489.6366E-03,-2.593785E-06
-484.7201E-03,-2.597973E-06
-479.5920E-03,-2.605708E-06
-474.6795E-03,-2.599250E-06
-469.7696E-03,-2.599667E-06
-464.6147E-03,-2.599072E-06
-459.7110E-03,-2.599838E-06
-454.5697E-03,-2.602841E-06
-449.6517E-03,-2.603127E-06
-444.7579E-03,-2.601161E-06
-439.6165E-03,-2.600649E-06
-434.7069E-03,-2.603411E-06
-429.8110E-03,-2.594786E-06
-424.6547E-03,-2.608968E-06
-419.7501E-03,-2.602808E-06
-414.6262E-03,-2.600916E-06
-409.7171E-03,-2.603687E-06
-404.8071E-03,-2.600353E-06
-399.6720E-03,-2.609935E-06
-394.7830E-03,-2.603095E-06
-389.6243E-03,-2.601210E-06
-384.7177E-03,-2.603974E-06
-379.8154E-03,-2.601644E-06
-374.6623E-03,-2.604959E-06
-369.7687E-03,-2.602934E-06
-364.6576E-03,-2.604503E-06
-359.7601E-03,-2.603648E-06
-354.8162E-03,-2.602108E-06
-349.6813E-03,-2.603729E-06
-344.7736E-03,-2.610798E-06
-339.8800E-03,-2.600286E-06
-334.7724E-03,-2.594744E-06
-329.8176E-03,-2.602686E-06
-324.6696E-03,-2.598547E-06
-319.7969E-03,-2.596273E-06
-314.8990E-03,-2.596073E-06
-309.7489E-03,-2.594985E-06
-304.8409E-03,-2.599050E-06
-299.7361E-03,-2.593684E-06
-294.7932E-03,-2.586123E-06
-289.9096E-03,-2.590549E-06
-284.7747E-03,-2.589471E-06
-279.8567E-03,-2.584803E-06
-274.7320E-03,-2.591300E-06
-269.7988E-03,-2.580781E-06
-264.9265E-03,-2.571057E-06
-259.7765E-03,-2.575696E-06
-254.8633E-03,-2.570582E-06
-249.9714E-03,-2.574922E-06
-244.8332E-03,-2.562027E-06
-239.9435E-03,-2.559200E-06
-234.7809E-03,-2.561060E-06
-229.8810E-03,-2.561269E-06
-225.0049E-03,-2.553403E-06
-219.8307E-03,-2.546996E-06
-214.9375E-03,-2.537892E-06
-209.7988E-03,-2.535196E-06
-204.8955E-03,-2.533316E-06
-199.9817E-03,-2.530917E-06
-194.8191E-03,-2.515410E-06
-189.9522E-03,-2.504725E-06
-184.8173E-03,-2.498552E-06
-179.9462E-03,-2.479511E-06
-175.0121E-03,-2.472104E-06
-169.8515E-03,-2.462636E-06
-164.9665E-03,-2.445338E-06
-159.8254E-03,-2.436770E-06
-154.9441E-03,-2.411585E-06
-150.0033E-03,-2.399677E-06
-144.8628E-03,-2.374135E-06
-139.9572E-03,-2.351650E-06
-135.0667E-03,-2.319294E-06
-129.9310E-03,-2.298311E-06
-125.0227E-03,-2.262528E-06
-119.8688E-03,-2.233917E-06
-114.9872E-03,-2.198951E-06
-110.0920E-03,-2.154489E-06
-104.9461E-03,-2.110904E-06
-100.0506E-03,-2.068270E-06
-94.90579E-03,-2.000877E-06
-89.98668E-03,-1.960034E-06
-85.11262E-03,-1.902289E-06
-79.97704E-03,-1.811538E-06
-75.03360E-03,-1.744017E-06
-69.91438E-03,-1.686733E-06
-65.02544E-03,-1.601367E-06
-60.11195E-03,-1.531418E-06
-54.97325E-03,-1.429642E-06
-50.06696E-03,-1.325226E-06
-45.14912E-03,-1.222806E-06
-40.02852E-03,-1.137614E-06
-35.14273E-03,-1.016423E-06
-29.96329E-03,-919.2871E-09
-25.07735E-03,-794.1653E-09
-20.18331E-03,-669.8807E-09
-15.03464E-03,-541.2221E-09
-10.13138E-03,-404.0739E-09
-5.011883E-03,-276.4269E-09
-154.9133E-06,-129.8372E-09
+4.771085E-03,+31.60458E-09
+9.913007E-03,+173.9594E-09
+14.80081E-03,+324.9680E-09
+19.94152E-03,+482.2770E-09
+24.83824E-03,+612.9581E-09
+29.74766E-03,+750.5685E-09
+34.89500E-03,+884.2812E-09
+39.79671E-03,+1.013698E-06
+44.94391E-03,+1.132055E-06
+49.83236E-03,+1.236995E-06
+54.74397E-03,+1.379131E-06
+59.88190E-03,+1.459857E-06
+64.77383E-03,+1.564880E-06
+69.68535E-03,+1.636391E-06
+74.80834E-03,+1.720626E-06
+79.71232E-03,+1.766105E-06
+84.87631E-03,+1.864394E-06
+89.76702E-03,+1.935787E-06
+94.66498E-03,+1.985111E-06
+99.79971E-03,+2.043992E-06
+104.6882E-03,+2.098552E-06
+109.8536E-03,+2.147212E-06
+114.7404E-03,+2.194457E-06
+119.6601E-03,+2.229199E-06
+124.7879E-03,+2.265471E-06
+129.6941E-03,+2.296615E-06
+134.8388E-03,+2.319986E-06
+139.7389E-03,+2.358145E-06
+144.6517E-03,+2.390235E-06
+149.7879E-03,+2.398598E-06
+154.6711E-03,+2.416674E-06
+159.5674E-03,+2.435472E-06
+164.7052E-03,+2.450077E-06
+169.6080E-03,+2.458748E-06
+174.7647E-03,+2.463021E-06
+179.6747E-03,+2.487888E-06
+184.5559E-03,+2.500251E-06
+189.6839E-03,+2.518941E-06
+194.5979E-03,+2.516932E-06
+199.7372E-03,+2.527460E-06
+204.6293E-03,+2.526504E-06
+209.5411E-03,+2.542801E-06
+214.7084E-03,+2.525970E-06
+219.6306E-03,+2.543930E-06
+224.7370E-03,+2.547838E-06
+229.6282E-03,+2.562358E-06
+234.5243E-03,+2.554614E-06
+239.6753E-03,+2.560154E-06
+244.5656E-03,+2.574354E-06
+249.7104E-03,+2.572500E-06
+254.6108E-03,+2.587369E-06
+259.5145E-03,+2.586256E-06
+264.6482E-03,+2.591409E-06
+269.5614E-03,+2.594557E-06
+274.4496E-03,+2.598683E-06
+279.5852E-03,+2.600773E-06
+284.5060E-03,+2.591154E-06
+289.6483E-03,+2.604210E-06
+294.5355E-03,+2.605929E-06
+299.4361E-03,+2.591263E-06
+304.5867E-03,+2.594287E-06
+309.4472E-03,+2.590526E-06
+314.6121E-03,+2.595106E-06
+319.5216E-03,+2.608465E-06
+324.4019E-03,+2.599163E-06
+329.6121E-03,+2.601044E-06
+334.4380E-03,+2.595145E-06
+339.5919E-03,+2.608132E-06
+344.4854E-03,+2.604643E-06
+349.3977E-03,+2.607761E-06
+354.5385E-03,+2.608046E-06
+359.4512E-03,+2.607173E-06
+364.3568E-03,+2.603839E-06
+369.4559E-03,+2.601684E-06
+374.3746E-03,+2.613938E-06
+379.5309E-03,+2.605061E-06
+384.4253E-03,+2.604582E-06
+389.3073E-03,+2.608381E-06
+394.4612E-03,+2.605186E-06
+399.3585E-03,+2.606154E-06
+404.5113E-03,+2.612978E-06
+409.4026E-03,+2.606220E-06
+414.3069E-03,+2.604193E-06
+419.4637E-03,+2.609833E-06
+424.3309E-03,+2.601834E-06
+429.4789E-03,+2.607838E-06
+434.3911E-03,+2.606969E-06
+439.2898E-03,+2.610045E-06
+444.4220E-03,+2.611156E-06
+449.3074E-03,+2.601759E-06
+454.2136E-03,+2.607061E-06
+459.3595E-03,+2.605408E-06
+464.2621E-03,+2.605358E-06
+469.3767E-03,+2.605319E-06
+474.2980E-03,+2.602677E-06
+479.2002E-03,+2.605768E-06
+484.3186E-03,+2.605073E-06
+489.2638E-03,+2.605718E-06
+494.3648E-03,+2.607283E-06
+499.3815E-03,+2.599361E-06

MicroMag 2900/3900 Data File ends
