MicroMag 2900/3900 Data File (Series 0016.002)
Direct moment vs. field; Hysteresis loop

INSTRUMENT
Configuration                   VSM
Temperature control             None
Hardware version                0004
Software version                06/08/2012
Units of measure                Hybrid SI
Temperature in                  Kelvin

SAMPLE
Mass                            N/A
Volume                          N/A
Demagnetizing factor            N/A

SETTINGS
Field range                    +1.000000E+00
Field (command)                 N/A
Moment range                   +5.000000E-06
Averaging time                 +200.0000E-03
Temperature (command)           N/A
Tmprtr difference correction    No
Orientation                     0.000000E+00
Vibration amplitude             1.0
Calibration factor             +3.570920E+00
Operating frequency            +83.00000E+00
Sweep mode                      Discrete
Pause after sweep increment    +300.0000E-03

MEASUREMENT
Description                    "DQ15-33B1"
Field (measured)                N/A
Temperature (measured)          N/A
Averages (completed)            1
Measured on                     10/29/2016  16:35
Elapsed time                   +207.0036E+00

PROCESSING
Background subtraction          No
Delta-m processing              N/A
Demagnetizing factor            No
Normalization                   No
Normalization factor            N/A
Offset (field)                  No
Offset (moment)                 No
Pole saturation                 No
Slope correction                No

VIEWPORT
Left                           -500.0000E-03
Right                          +500.0000E-03
Bottom                         -5.000000E-06
Top                            +5.000000E-06
Show X-axis?                    Yes
Show Y-axis?                    Yes

CHARACTERIZATION
Initial slope                   N/A
Saturation                     +2.642648E-06
Remanence                      +131.6566E-09
Coercivity                     +4.253107E-03
S*                             +31.98059E-06

SCRIPT
Averages (target)               1
Averaging time                 +200.0000E-03
Demagnetize?                    No
Maximum field                  +500.0000E-03
Field increment                +5.000000E-03
Hysteresis loop?                Yes
Initial magnetization?          No
Pause                          +1.000000E+00
Saturate before measuring?      No
Number of segments              2
Number of data                  402

Segment   Averaging      Initial        Field         Final                    Final 
 Number      Time         Field       Increment       Field         Pause      Index 
             (s)           (T)           (T)           (T)           (s)     
0000001,+200.0000E-03,+500.0000E-03,+5.000000E-03,-500.0000E-03,+1.000000E+00,0000201
0000002,+200.0000E-03,-500.0000E-03,+5.000000E-03,+500.0000E-03,+1.000000E+00,0000402

                           
    Field         Moment   
     (T)          (Am²)    
+499.3530E-03,+2.642925E-06
+494.5728E-03,+2.642930E-06
+489.4625E-03,+2.647882E-06
+484.5470E-03,+2.644871E-06
+479.3985E-03,+2.643568E-06
+474.4987E-03,+2.647569E-06
+469.5810E-03,+2.648616E-06
+464.4541E-03,+2.646691E-06
+459.5413E-03,+2.650444E-06
+454.3913E-03,+2.646186E-06
+449.4820E-03,+2.650705E-06
+444.6082E-03,+2.649824E-06
+439.4612E-03,+2.647374E-06
+434.5511E-03,+2.650804E-06
+429.6413E-03,+2.649632E-06
+424.4986E-03,+2.649268E-06
+419.5975E-03,+2.651338E-06
+414.4681E-03,+2.652107E-06
+409.5535E-03,+2.655469E-06
+404.6500E-03,+2.651792E-06
+399.5093E-03,+2.651710E-06
+394.6056E-03,+2.651484E-06
+389.4599E-03,+2.654399E-06
+384.5686E-03,+2.654275E-06
+379.6682E-03,+2.653083E-06
+374.5192E-03,+2.649644E-06
+369.6216E-03,+2.652714E-06
+364.4832E-03,+2.650393E-06
+359.5694E-03,+2.648141E-06
+354.6703E-03,+2.650363E-06
+349.5307E-03,+2.650098E-06
+344.6275E-03,+2.649359E-06
+339.7301E-03,+2.647558E-06
+334.5946E-03,+2.642393E-06
+329.7017E-03,+2.649234E-06
+324.5506E-03,+2.644500E-06
+319.6508E-03,+2.651617E-06
+314.7487E-03,+2.640026E-06
+309.5984E-03,+2.649284E-06
+304.7090E-03,+2.646743E-06
+299.5668E-03,+2.642535E-06
+294.6570E-03,+2.644624E-06
+289.7712E-03,+2.635332E-06
+284.6353E-03,+2.637403E-06
+279.7104E-03,+2.636947E-06
+274.5716E-03,+2.633768E-06
+269.6801E-03,+2.625416E-06
+264.7754E-03,+2.629452E-06
+259.6343E-03,+2.628432E-06
+254.7476E-03,+2.621101E-06
+249.8283E-03,+2.620409E-06
+244.6988E-03,+2.617337E-06
+239.7960E-03,+2.617282E-06
+234.6430E-03,+2.607077E-06
+229.7523E-03,+2.606117E-06
+224.8552E-03,+2.604672E-06
+219.7096E-03,+2.594488E-06
+214.8064E-03,+2.591760E-06
+209.6714E-03,+2.584506E-06
+204.7586E-03,+2.576871E-06
+199.8508E-03,+2.566660E-06
+194.7308E-03,+2.569850E-06
+189.8190E-03,+2.556675E-06
+184.6692E-03,+2.548678E-06
+179.7884E-03,+2.533698E-06
+174.8847E-03,+2.521485E-06
+169.7316E-03,+2.512345E-06
+164.8405E-03,+2.496804E-06
+159.7016E-03,+2.481229E-06
+154.7824E-03,+2.462433E-06
+149.8860E-03,+2.442715E-06
+144.7444E-03,+2.420977E-06
+139.8448E-03,+2.400412E-06
+134.9443E-03,+2.382603E-06
+129.8055E-03,+2.349205E-06
+124.9115E-03,+2.311748E-06
+119.7588E-03,+2.279012E-06
+114.8769E-03,+2.242381E-06
+109.9731E-03,+2.198700E-06
+104.8252E-03,+2.148120E-06
+99.92433E-03,+2.102596E-06
+94.78141E-03,+2.047364E-06
+89.86615E-03,+1.991703E-06
+84.99024E-03,+1.930424E-06
+79.84866E-03,+1.861400E-06
+74.92378E-03,+1.796017E-06
+69.79179E-03,+1.714824E-06
+64.89957E-03,+1.641979E-06
+59.99646E-03,+1.558463E-06
+54.84812E-03,+1.464963E-06
+49.94868E-03,+1.368289E-06
+45.05542E-03,+1.264235E-06
+39.90660E-03,+1.162816E-06
+35.01274E-03,+1.048462E-06
+29.85382E-03,+936.6163E-09
+24.96713E-03,+806.8786E-09
+20.06404E-03,+683.1810E-09
+14.91399E-03,+554.2353E-09
+10.03319E-03,+420.0792E-09
+4.899182E-03,+284.5934E-09
-9.017159E-06,+134.7463E-09
-4.874970E-03,-12.83250E-09
-10.01043E-03,-173.6373E-09
-14.91272E-03,-321.5626E-09
-20.05887E-03,-476.8423E-09
-24.96236E-03,-617.7848E-09
-29.86634E-03,-758.8958E-09
-35.02887E-03,-893.2144E-09
-39.90980E-03,-1.032852E-06
-45.05399E-03,-1.158422E-06
-49.94838E-03,-1.262309E-06
-54.85259E-03,-1.368069E-06
-59.99511E-03,-1.480660E-06
-64.89270E-03,-1.563992E-06
-69.78726E-03,-1.662153E-06
-74.92226E-03,-1.744264E-06
-79.83999E-03,-1.823603E-06
-84.96993E-03,-1.894851E-06
-89.86627E-03,-1.965699E-06
-94.77903E-03,-2.024730E-06
-99.92208E-03,-2.076591E-06
-104.8249E-03,-2.137125E-06
-109.9677E-03,-2.185759E-06
-114.8685E-03,-2.223371E-06
-119.7470E-03,-2.260502E-06
-124.8872E-03,-2.300026E-06
-129.7987E-03,-2.330443E-06
-134.9344E-03,-2.348649E-06
-139.8258E-03,-2.387684E-06
-144.7316E-03,-2.410700E-06
-149.8696E-03,-2.428259E-06
-154.7740E-03,-2.461528E-06
-159.6976E-03,-2.466415E-06
-164.8160E-03,-2.481405E-06
-169.7139E-03,-2.509519E-06
-174.8601E-03,-2.512041E-06
-179.7763E-03,-2.523034E-06
-184.6668E-03,-2.530774E-06
-189.8150E-03,-2.554114E-06
-194.7023E-03,-2.551363E-06
-199.8313E-03,-2.565554E-06
-204.7542E-03,-2.570476E-06
-209.6492E-03,-2.574591E-06
-214.7862E-03,-2.582904E-06
-219.6961E-03,-2.594245E-06
-224.8303E-03,-2.598904E-06
-229.7254E-03,-2.599899E-06
-234.6361E-03,-2.607159E-06
-239.7800E-03,-2.610988E-06
-244.6827E-03,-2.605569E-06
-249.8112E-03,-2.622321E-06
-254.7100E-03,-2.615822E-06
-259.6174E-03,-2.621296E-06
-264.7499E-03,-2.623691E-06
-269.6519E-03,-2.627947E-06
-274.5471E-03,-2.627326E-06
-279.6817E-03,-2.630565E-06
-284.6057E-03,-2.630420E-06
-289.7396E-03,-2.634872E-06
-294.6263E-03,-2.637102E-06
-299.5434E-03,-2.637889E-06
-304.6796E-03,-2.638229E-06
-309.5860E-03,-2.639734E-06
-314.7227E-03,-2.634995E-06
-319.6157E-03,-2.636128E-06
-324.5086E-03,-2.641649E-06
-329.6555E-03,-2.648468E-06
-334.5673E-03,-2.646221E-06
-339.7000E-03,-2.642542E-06
-344.5961E-03,-2.647545E-06
-349.4941E-03,-2.645949E-06
-354.6360E-03,-2.647187E-06
-359.5400E-03,-2.653011E-06
-364.4461E-03,-2.643797E-06
-369.5804E-03,-2.644652E-06
-374.4838E-03,-2.639722E-06
-379.6283E-03,-2.646719E-06
-384.5119E-03,-2.648945E-06
-389.4302E-03,-2.653922E-06
-394.5769E-03,-2.644035E-06
-399.4560E-03,-2.641896E-06
-404.5980E-03,-2.644803E-06
-409.5061E-03,-2.650330E-06
-414.4073E-03,-2.652589E-06
-419.5412E-03,-2.650648E-06
-424.4406E-03,-2.651000E-06
-429.5819E-03,-2.647863E-06
-434.4793E-03,-2.644291E-06
-439.3760E-03,-2.652628E-06
-444.5230E-03,-2.644514E-06
-449.4153E-03,-2.649774E-06
-454.3149E-03,-2.643667E-06
-459.4539E-03,-2.647844E-06
-464.3639E-03,-2.645684E-06
-469.4838E-03,-2.646071E-06
-474.4024E-03,-2.642610E-06
-479.3088E-03,-2.643891E-06
-484.4342E-03,-2.641402E-06
-489.3577E-03,-2.643401E-06
-494.4855E-03,-2.641626E-06
-499.4550E-03,-2.639405E-06

-499.4520E-03,-2.641871E-06
-494.6862E-03,-2.641075E-06
-489.5820E-03,-2.642070E-06
-484.6590E-03,-2.641726E-06
-479.5302E-03,-2.644993E-06
-474.6216E-03,-2.650818E-06
-469.6974E-03,-2.646582E-06
-464.5583E-03,-2.647140E-06
-459.6497E-03,-2.644824E-06
-454.4921E-03,-2.645742E-06
-449.6020E-03,-2.646503E-06
-444.7053E-03,-2.650480E-06
-439.5621E-03,-2.647023E-06
-434.6467E-03,-2.648164E-06
-429.7506E-03,-2.651287E-06
-424.6138E-03,-2.649772E-06
-419.6998E-03,-2.650165E-06
-414.5702E-03,-2.650764E-06
-409.6653E-03,-2.648441E-06
-404.7485E-03,-2.646500E-06
-399.6250E-03,-2.650587E-06
-394.7326E-03,-2.649226E-06
-389.5789E-03,-2.652368E-06
-384.6880E-03,-2.650408E-06
-379.7776E-03,-2.642789E-06
-374.6239E-03,-2.649767E-06
-369.7300E-03,-2.647390E-06
-364.5863E-03,-2.652140E-06
-359.6824E-03,-2.650929E-06
-354.7824E-03,-2.648698E-06
-349.6406E-03,-2.647824E-06
-344.7278E-03,-2.647248E-06
-339.8329E-03,-2.646236E-06
-334.7065E-03,-2.646798E-06
-329.7905E-03,-2.646630E-06
-324.6509E-03,-2.644634E-06
-319.7515E-03,-2.640163E-06
-314.8615E-03,-2.639969E-06
-309.7185E-03,-2.638227E-06
-304.8131E-03,-2.636532E-06
-299.6721E-03,-2.635913E-06
-294.7619E-03,-2.634489E-06
-289.8788E-03,-2.633196E-06
-284.7351E-03,-2.628023E-06
-279.8245E-03,-2.628075E-06
-274.6831E-03,-2.626892E-06
-269.7807E-03,-2.628651E-06
-264.8716E-03,-2.625409E-06
-259.7287E-03,-2.623280E-06
-254.8333E-03,-2.621692E-06
-249.9374E-03,-2.617468E-06
-244.7972E-03,-2.614616E-06
-239.9081E-03,-2.608608E-06
-234.7552E-03,-2.606769E-06
-229.8481E-03,-2.599209E-06
-224.9605E-03,-2.599910E-06
-219.8185E-03,-2.584892E-06
-214.9010E-03,-2.588410E-06
-209.7626E-03,-2.579104E-06
-204.8768E-03,-2.575625E-06
-199.9574E-03,-2.564716E-06
-194.8167E-03,-2.559666E-06
-189.9293E-03,-2.546606E-06
-184.7809E-03,-2.538234E-06
-179.8889E-03,-2.525727E-06
-174.9836E-03,-2.523799E-06
-169.8391E-03,-2.508532E-06
-164.9370E-03,-2.491187E-06
-159.8025E-03,-2.478794E-06
-154.8838E-03,-2.457027E-06
-149.9909E-03,-2.437968E-06
-144.8448E-03,-2.417298E-06
-139.9457E-03,-2.389000E-06
-135.0474E-03,-2.366574E-06
-129.9184E-03,-2.342287E-06
-124.9973E-03,-2.312431E-06
-119.8651E-03,-2.270133E-06
-114.9672E-03,-2.242697E-06
-110.0746E-03,-2.197043E-06
-104.9243E-03,-2.150538E-06
-100.0229E-03,-2.103277E-06
-94.88256E-03,-2.038064E-06
-89.96426E-03,-1.984028E-06
-85.08616E-03,-1.922002E-06
-79.94433E-03,-1.863264E-06
-75.03270E-03,-1.789373E-06
-69.89711E-03,-1.709338E-06
-64.99820E-03,-1.631960E-06
-60.10385E-03,-1.540268E-06
-54.96002E-03,-1.455795E-06
-50.05726E-03,-1.364646E-06
-45.15246E-03,-1.259508E-06
-40.01272E-03,-1.149635E-06
-35.12993E-03,-1.040352E-06
-29.97075E-03,-921.3367E-09
-25.06484E-03,-810.8491E-09
-20.17418E-03,-677.6168E-09
-15.01930E-03,-544.3289E-09
-10.12123E-03,-413.1958E-09
-4.983898E-03,-266.6166E-09
-117.8452E-06,-132.0205E-09
+4.801827E-03,+23.65211E-09
+9.929474E-03,+181.2689E-09
+14.80218E-03,+336.2101E-09
+19.95923E-03,+484.8508E-09
+24.85175E-03,+635.2111E-09
+29.74482E-03,+769.4814E-09
+34.91183E-03,+905.6809E-09
+39.80935E-03,+1.043639E-06
+44.94504E-03,+1.154231E-06
+49.84597E-03,+1.269712E-06
+54.74354E-03,+1.371316E-06
+59.88499E-03,+1.486756E-06
+64.78970E-03,+1.582026E-06
+69.68975E-03,+1.660455E-06
+74.81706E-03,+1.762790E-06
+79.74152E-03,+1.827938E-06
+84.86965E-03,+1.900866E-06
+89.76243E-03,+1.957727E-06
+94.67699E-03,+2.032426E-06
+99.81721E-03,+2.087075E-06
+104.7061E-03,+2.139205E-06
+109.8602E-03,+2.187930E-06
+114.7590E-03,+2.232804E-06
+119.6549E-03,+2.270130E-06
+124.7926E-03,+2.300905E-06
+129.6982E-03,+2.343948E-06
+134.8351E-03,+2.364116E-06
+139.7410E-03,+2.400729E-06
+144.6328E-03,+2.411173E-06
+149.7695E-03,+2.445885E-06
+154.6804E-03,+2.457431E-06
+159.5882E-03,+2.470938E-06
+164.7202E-03,+2.498349E-06
+169.6098E-03,+2.509395E-06
+174.7627E-03,+2.520668E-06
+179.6673E-03,+2.539077E-06
+184.5513E-03,+2.539755E-06
+189.7042E-03,+2.556576E-06
+194.6030E-03,+2.563727E-06
+199.7310E-03,+2.566365E-06
+204.6420E-03,+2.570493E-06
+209.5512E-03,+2.591202E-06
+214.6796E-03,+2.580772E-06
+219.5852E-03,+2.597820E-06
+224.7207E-03,+2.594398E-06
+229.6293E-03,+2.600756E-06
+234.5184E-03,+2.612202E-06
+239.6765E-03,+2.605806E-06
+244.5646E-03,+2.617063E-06
+249.7131E-03,+2.612425E-06
+254.6113E-03,+2.628759E-06
+259.5080E-03,+2.628559E-06
+264.6366E-03,+2.630938E-06
+269.5502E-03,+2.624850E-06
+274.4296E-03,+2.632531E-06
+279.5852E-03,+2.641023E-06
+284.5065E-03,+2.636154E-06
+289.6439E-03,+2.629945E-06
+294.5202E-03,+2.642215E-06
+299.4469E-03,+2.638689E-06
+304.5756E-03,+2.639640E-06
+309.4622E-03,+2.639283E-06
+314.6107E-03,+2.644278E-06
+319.5160E-03,+2.642655E-06
+324.4095E-03,+2.651316E-06
+329.5625E-03,+2.645900E-06
+334.4520E-03,+2.648412E-06
+339.5808E-03,+2.653011E-06
+344.4842E-03,+2.647821E-06
+349.3851E-03,+2.658623E-06
+354.5301E-03,+2.648318E-06
+359.4362E-03,+2.646069E-06
+364.3307E-03,+2.651116E-06
+369.4705E-03,+2.655756E-06
+374.3721E-03,+2.649487E-06
+379.5116E-03,+2.657452E-06
+384.4139E-03,+2.652244E-06
+389.2981E-03,+2.650820E-06
+394.4571E-03,+2.648961E-06
+399.3565E-03,+2.652525E-06
+404.4939E-03,+2.651592E-06
+409.3848E-03,+2.652084E-06
+414.3012E-03,+2.650552E-06
+419.4363E-03,+2.649574E-06
+424.3271E-03,+2.654401E-06
+429.4779E-03,+2.650884E-06
+434.3692E-03,+2.656810E-06
+439.2769E-03,+2.653998E-06
+444.4116E-03,+2.653256E-06
+449.3073E-03,+2.647469E-06
+454.2083E-03,+2.651754E-06
+459.3444E-03,+2.649947E-06
+464.2470E-03,+2.649480E-06
+469.3741E-03,+2.653793E-06
+474.2747E-03,+2.649489E-06
+479.1682E-03,+2.646888E-06
+484.3117E-03,+2.650972E-06
+489.2448E-03,+2.644926E-06
+494.3608E-03,+2.648882E-06
+499.3394E-03,+2.641742E-06

MicroMag 2900/3900 Data File ends
