MicroMag 2900/3900 Data File (Series 0016.002)
Direct moment vs. field; Hysteresis loop

INSTRUMENT
Configuration                   VSM
Temperature control             None
Hardware version                0004
Software version                06/08/2012
Units of measure                Hybrid SI
Temperature in                  Kelvin

SAMPLE
Mass                            N/A
Volume                          N/A
Demagnetizing factor            N/A

SETTINGS
Field range                    +1.000000E+00
Field (command)                 N/A
Moment range                   +5.000000E-06
Averaging time                 +200.0000E-03
Temperature (command)           N/A
Tmprtr difference correction    No
Orientation                     0.000000E+00
Vibration amplitude             1.0
Calibration factor             +3.570920E+00
Operating frequency            +83.00000E+00
Sweep mode                      Discrete
Pause after sweep increment    +300.0000E-03

MEASUREMENT
Description                    "DQ15-33B1"
Field (measured)                N/A
Temperature (measured)          N/A
Averages (completed)            1
Measured on                     10/29/2016  15:50
Elapsed time                   +206.9214E+00

PROCESSING
Background subtraction          No
Delta-m processing              N/A
Demagnetizing factor            No
Normalization                   No
Normalization factor            N/A
Offset (field)                  No
Offset (moment)                 No
Pole saturation                 No
Slope correction                No

VIEWPORT
Left                           -500.0000E-03
Right                          +500.0000E-03
Bottom                         -5.000000E-06
Top                            +5.000000E-06
Show X-axis?                    Yes
Show Y-axis?                    Yes

CHARACTERIZATION
Initial slope                   N/A
Saturation                     +2.632767E-06
Remanence                      +126.3046E-09
Coercivity                     +4.259620E-03
S*                             +84.49189E-09

SCRIPT
Averages (target)               1
Averaging time                 +200.0000E-03
Demagnetize?                    No
Maximum field                  +500.0000E-03
Field increment                +5.000000E-03
Hysteresis loop?                Yes
Initial magnetization?          No
Pause                          +1.000000E+00
Saturate before measuring?      No
Number of segments              2
Number of data                  402

Segment   Averaging      Initial        Field         Final                    Final 
 Number      Time         Field       Increment       Field         Pause      Index 
             (s)           (T)           (T)           (T)           (s)     
0000001,+200.0000E-03,+500.0000E-03,+5.000000E-03,-500.0000E-03,+1.000000E+00,0000201
0000002,+200.0000E-03,-500.0000E-03,+5.000000E-03,+500.0000E-03,+1.000000E+00,0000402

                           
    Field         Moment   
     (T)          (Am²)    
+499.3523E-03,+2.631386E-06
+494.5744E-03,+2.634252E-06
+489.4733E-03,+2.634526E-06
+484.5537E-03,+2.633510E-06
+479.4063E-03,+2.638265E-06
+474.4987E-03,+2.641833E-06
+469.5891E-03,+2.637470E-06
+464.4538E-03,+2.638097E-06
+459.5499E-03,+2.640649E-06
+454.4031E-03,+2.641352E-06
+449.4966E-03,+2.639381E-06
+444.6046E-03,+2.637951E-06
+439.4651E-03,+2.642059E-06
+434.5529E-03,+2.639903E-06
+429.6447E-03,+2.643467E-06
+424.5001E-03,+2.645146E-06
+419.6008E-03,+2.639265E-06
+414.4670E-03,+2.639604E-06
+409.5602E-03,+2.644105E-06
+404.6659E-03,+2.640183E-06
+399.5207E-03,+2.638058E-06
+394.6139E-03,+2.639124E-06
+389.4591E-03,+2.639292E-06
+384.5776E-03,+2.638161E-06
+379.6707E-03,+2.639196E-06
+374.5293E-03,+2.640662E-06
+369.6248E-03,+2.641473E-06
+364.4892E-03,+2.638627E-06
+359.5799E-03,+2.641136E-06
+354.6767E-03,+2.641166E-06
+349.5390E-03,+2.641462E-06
+344.6244E-03,+2.638916E-06
+339.7356E-03,+2.635521E-06
+334.6005E-03,+2.636942E-06
+329.7082E-03,+2.630246E-06
+324.5562E-03,+2.635077E-06
+319.6542E-03,+2.630593E-06
+314.7550E-03,+2.630223E-06
+309.6090E-03,+2.636742E-06
+304.7100E-03,+2.628948E-06
+299.5707E-03,+2.626872E-06
+294.6572E-03,+2.631994E-06
+289.7776E-03,+2.626680E-06
+284.6367E-03,+2.625689E-06
+279.7079E-03,+2.625958E-06
+274.5725E-03,+2.616713E-06
+269.6803E-03,+2.617285E-06
+264.7795E-03,+2.618204E-06
+259.6268E-03,+2.614264E-06
+254.7394E-03,+2.614248E-06
+249.8475E-03,+2.603865E-06
+244.6912E-03,+2.608263E-06
+239.7987E-03,+2.604328E-06
+234.6505E-03,+2.603220E-06
+229.7469E-03,+2.596853E-06
+224.8519E-03,+2.587979E-06
+219.7068E-03,+2.587245E-06
+214.8077E-03,+2.580299E-06
+209.6651E-03,+2.574743E-06
+204.7673E-03,+2.564263E-06
+199.8481E-03,+2.558882E-06
+194.7280E-03,+2.549502E-06
+189.8243E-03,+2.539232E-06
+184.6646E-03,+2.532768E-06
+179.7925E-03,+2.523636E-06
+174.8787E-03,+2.506270E-06
+169.7284E-03,+2.495950E-06
+164.8332E-03,+2.483797E-06
+159.7086E-03,+2.473513E-06
+154.7834E-03,+2.451327E-06
+149.8761E-03,+2.431963E-06
+144.7457E-03,+2.422163E-06
+139.8381E-03,+2.386244E-06
+134.9425E-03,+2.358222E-06
+129.8014E-03,+2.336221E-06
+124.9165E-03,+2.301113E-06
+119.7632E-03,+2.270056E-06
+114.8654E-03,+2.224364E-06
+109.9646E-03,+2.187711E-06
+104.8205E-03,+2.141242E-06
+99.92248E-03,+2.089737E-06
+94.78463E-03,+2.043252E-06
+89.87973E-03,+1.994882E-06
+84.99085E-03,+1.923567E-06
+79.84859E-03,+1.861290E-06
+74.92972E-03,+1.782802E-06
+69.79038E-03,+1.706303E-06
+64.89431E-03,+1.631674E-06
+59.98829E-03,+1.538537E-06
+54.85428E-03,+1.458710E-06
+49.94785E-03,+1.361498E-06
+45.03959E-03,+1.263479E-06
+39.92263E-03,+1.154402E-06
+35.01626E-03,+1.041642E-06
+29.85279E-03,+913.3715E-09
+24.96512E-03,+808.4324E-09
+20.06367E-03,+682.3543E-09
+14.91045E-03,+548.7960E-09
+10.03523E-03,+414.0403E-09
+4.904425E-03,+269.3275E-09
-1.151584E-09,+135.5638E-09
-4.880957E-03,-16.06345E-09
-10.01562E-03,-172.6848E-09
-14.91808E-03,-322.7445E-09
-20.06802E-03,-481.8982E-09
-24.96624E-03,-612.0646E-09
-29.86735E-03,-756.1483E-09
-35.01945E-03,-903.6524E-09
-39.91067E-03,-1.020706E-06
-45.04967E-03,-1.146626E-06
-49.94532E-03,-1.266572E-06
-54.85031E-03,-1.358548E-06
-59.99043E-03,-1.469369E-06
-64.89324E-03,-1.568535E-06
-69.79337E-03,-1.645856E-06
-74.92788E-03,-1.731414E-06
-79.84524E-03,-1.817655E-06
-84.97324E-03,-1.881818E-06
-89.86373E-03,-1.947448E-06
-94.77811E-03,-2.013590E-06
-99.92760E-03,-2.080127E-06
-104.8260E-03,-2.112529E-06
-109.9690E-03,-2.171385E-06
-114.8698E-03,-2.227739E-06
-119.7490E-03,-2.257236E-06
-124.8914E-03,-2.287141E-06
-129.8035E-03,-2.329695E-06
-134.9395E-03,-2.353746E-06
-139.8412E-03,-2.382198E-06
-144.7429E-03,-2.391411E-06
-149.8782E-03,-2.428289E-06
-154.7776E-03,-2.456690E-06
-159.6947E-03,-2.460859E-06
-164.8269E-03,-2.475010E-06
-169.7238E-03,-2.500345E-06
-174.8784E-03,-2.510047E-06
-179.7706E-03,-2.523227E-06
-184.6752E-03,-2.525375E-06
-189.8151E-03,-2.531815E-06
-194.7061E-03,-2.547252E-06
-199.8487E-03,-2.555943E-06
-204.7601E-03,-2.561269E-06
-209.6491E-03,-2.568767E-06
-214.7822E-03,-2.571372E-06
-219.6945E-03,-2.582769E-06
-224.8404E-03,-2.580357E-06
-229.7267E-03,-2.591853E-06
-234.6372E-03,-2.593378E-06
-239.7897E-03,-2.599474E-06
-244.6787E-03,-2.602440E-06
-249.8084E-03,-2.603420E-06
-254.7268E-03,-2.601789E-06
-259.6250E-03,-2.603228E-06
-264.7515E-03,-2.612385E-06
-269.6521E-03,-2.608998E-06
-274.5491E-03,-2.616861E-06
-279.6995E-03,-2.609897E-06
-284.6113E-03,-2.632211E-06
-289.7459E-03,-2.625222E-06
-294.6368E-03,-2.624913E-06
-299.5508E-03,-2.623347E-06
-304.6874E-03,-2.626530E-06
-309.5803E-03,-2.627665E-06
-314.7156E-03,-2.624722E-06
-319.6138E-03,-2.628676E-06
-324.5187E-03,-2.639566E-06
-329.6622E-03,-2.633646E-06
-334.5713E-03,-2.637766E-06
-339.6906E-03,-2.630447E-06
-344.5873E-03,-2.633136E-06
-349.4988E-03,-2.638093E-06
-354.6478E-03,-2.629233E-06
-359.5487E-03,-2.634092E-06
-364.4521E-03,-2.632749E-06
-369.5873E-03,-2.634680E-06
-374.4718E-03,-2.635433E-06
-379.6324E-03,-2.637924E-06
-384.5256E-03,-2.637853E-06
-389.4382E-03,-2.636166E-06
-394.5836E-03,-2.637755E-06
-399.4606E-03,-2.635637E-06
-404.6031E-03,-2.638646E-06
-409.5149E-03,-2.636957E-06
-414.4040E-03,-2.638546E-06
-419.5467E-03,-2.640005E-06
-424.4495E-03,-2.632907E-06
-429.5826E-03,-2.629034E-06
-434.4818E-03,-2.638136E-06
-439.3891E-03,-2.635182E-06
-444.5315E-03,-2.640930E-06
-449.4266E-03,-2.634544E-06
-454.3211E-03,-2.636997E-06
-459.4639E-03,-2.631457E-06
-464.3682E-03,-2.631537E-06
-469.4997E-03,-2.636369E-06
-474.4184E-03,-2.634278E-06
-479.3134E-03,-2.633239E-06
-484.4320E-03,-2.634389E-06
-489.3623E-03,-2.632434E-06
-494.4968E-03,-2.633756E-06
-499.4581E-03,-2.627325E-06

-499.4605E-03,-2.631121E-06
-494.6926E-03,-2.633787E-06
-489.5882E-03,-2.631672E-06
-484.6683E-03,-2.632476E-06
-479.5391E-03,-2.630361E-06
-474.6281E-03,-2.636911E-06
-469.7112E-03,-2.631119E-06
-464.5672E-03,-2.636603E-06
-459.6673E-03,-2.634994E-06
-454.5074E-03,-2.633808E-06
-449.6113E-03,-2.635215E-06
-444.7155E-03,-2.633680E-06
-439.5590E-03,-2.635774E-06
-434.6576E-03,-2.631685E-06
-429.7574E-03,-2.635720E-06
-424.6152E-03,-2.634615E-06
-419.6964E-03,-2.641581E-06
-414.5758E-03,-2.636191E-06
-409.6776E-03,-2.636502E-06
-404.7693E-03,-2.638467E-06
-399.6276E-03,-2.638502E-06
-394.7417E-03,-2.641342E-06
-389.5851E-03,-2.638487E-06
-384.6825E-03,-2.638249E-06
-379.7821E-03,-2.639731E-06
-374.6247E-03,-2.637764E-06
-369.7358E-03,-2.638280E-06
-364.6006E-03,-2.640896E-06
-359.6845E-03,-2.636669E-06
-354.7877E-03,-2.637581E-06
-349.6406E-03,-2.635431E-06
-344.7357E-03,-2.636403E-06
-339.8276E-03,-2.637822E-06
-334.7126E-03,-2.637289E-06
-329.7966E-03,-2.631255E-06
-324.6509E-03,-2.630128E-06
-319.7628E-03,-2.632732E-06
-314.8609E-03,-2.627861E-06
-309.7194E-03,-2.629486E-06
-304.8069E-03,-2.628587E-06
-299.6759E-03,-2.630905E-06
-294.7668E-03,-2.627573E-06
-289.8743E-03,-2.622990E-06
-284.7435E-03,-2.625653E-06
-279.8209E-03,-2.616947E-06
-274.6798E-03,-2.621972E-06
-269.7823E-03,-2.615874E-06
-264.8869E-03,-2.614270E-06
-259.7486E-03,-2.607624E-06
-254.8422E-03,-2.613263E-06
-249.9361E-03,-2.606043E-06
-244.8057E-03,-2.600953E-06
-239.9081E-03,-2.600282E-06
-234.7623E-03,-2.592823E-06
-229.8511E-03,-2.591933E-06
-224.9632E-03,-2.588964E-06
-219.8132E-03,-2.582919E-06
-214.9122E-03,-2.578316E-06
-209.7639E-03,-2.568447E-06
-204.8703E-03,-2.565859E-06
-199.9532E-03,-2.553119E-06
-194.8212E-03,-2.548154E-06
-189.9313E-03,-2.538555E-06
-184.7837E-03,-2.532880E-06
-179.8889E-03,-2.521081E-06
-174.9904E-03,-2.508846E-06
-169.8337E-03,-2.495181E-06
-164.9523E-03,-2.480429E-06
-159.8008E-03,-2.462006E-06
-154.8942E-03,-2.449712E-06
-149.9978E-03,-2.427841E-06
-144.8529E-03,-2.405890E-06
-139.9490E-03,-2.382976E-06
-135.0368E-03,-2.358557E-06
-129.9149E-03,-2.329102E-06
-125.0040E-03,-2.297554E-06
-119.8680E-03,-2.264855E-06
-114.9754E-03,-2.221795E-06
-110.0748E-03,-2.190247E-06
-104.9355E-03,-2.143057E-06
-100.0304E-03,-2.086108E-06
-94.88695E-03,-2.037857E-06
-89.96458E-03,-1.975522E-06
-85.07919E-03,-1.917106E-06
-79.95166E-03,-1.855360E-06
-75.03771E-03,-1.786567E-06
-69.89756E-03,-1.702837E-06
-64.99298E-03,-1.622142E-06
-60.10125E-03,-1.541203E-06
-54.96893E-03,-1.450040E-06
-50.05865E-03,-1.352061E-06
-45.16070E-03,-1.259287E-06
-40.02240E-03,-1.147264E-06
-35.12637E-03,-1.033365E-06
-29.97234E-03,-919.7612E-09
-25.07146E-03,-800.6970E-09
-20.17851E-03,-674.9270E-09
-15.02257E-03,-544.2679E-09
-10.13200E-03,-415.7057E-09
-4.984464E-03,-268.0804E-09
-114.2028E-06,-120.2622E-09
+4.789790E-03,+17.86979E-09
+9.928028E-03,+186.5210E-09
+14.80438E-03,+334.3378E-09
+19.95403E-03,+486.4148E-09
+24.85488E-03,+627.8964E-09
+29.74605E-03,+776.4484E-09
+34.91244E-03,+904.1839E-09
+39.80112E-03,+1.029566E-06
+44.93449E-03,+1.160497E-06
+49.84981E-03,+1.264880E-06
+54.75169E-03,+1.383359E-06
+59.88464E-03,+1.475047E-06
+64.78622E-03,+1.578001E-06
+69.69272E-03,+1.662712E-06
+74.81789E-03,+1.743018E-06
+79.74653E-03,+1.818424E-06
+84.88868E-03,+1.883647E-06
+89.77016E-03,+1.958116E-06
+94.68272E-03,+2.027080E-06
+99.81811E-03,+2.073713E-06
+104.7130E-03,+2.135597E-06
+109.8725E-03,+2.166401E-06
+114.7581E-03,+2.219554E-06
+119.6597E-03,+2.257283E-06
+124.7953E-03,+2.296003E-06
+129.6981E-03,+2.326461E-06
+134.8315E-03,+2.363690E-06
+139.7283E-03,+2.385025E-06
+144.6352E-03,+2.409679E-06
+149.7702E-03,+2.429548E-06
+154.6747E-03,+2.447709E-06
+159.5912E-03,+2.463656E-06
+164.7178E-03,+2.480880E-06
+169.6194E-03,+2.493300E-06
+174.7687E-03,+2.520316E-06
+179.6674E-03,+2.530272E-06
+184.5514E-03,+2.536731E-06
+189.7053E-03,+2.543363E-06
+194.6087E-03,+2.553004E-06
+199.7402E-03,+2.555549E-06
+204.6469E-03,+2.569689E-06
+209.5522E-03,+2.576474E-06
+214.6910E-03,+2.572517E-06
+219.5914E-03,+2.585148E-06
+224.7303E-03,+2.588737E-06
+229.6406E-03,+2.586001E-06
+234.5132E-03,+2.598616E-06
+239.6691E-03,+2.604734E-06
+244.5761E-03,+2.594192E-06
+249.7024E-03,+2.609961E-06
+254.6224E-03,+2.606258E-06
+259.5057E-03,+2.612423E-06
+264.6474E-03,+2.611508E-06
+269.5575E-03,+2.621757E-06
+274.4525E-03,+2.618342E-06
+279.5803E-03,+2.626104E-06
+284.5120E-03,+2.626271E-06
+289.6469E-03,+2.624485E-06
+294.5322E-03,+2.627295E-06
+299.4502E-03,+2.636269E-06
+304.5778E-03,+2.630895E-06
+309.4718E-03,+2.640853E-06
+314.6174E-03,+2.631520E-06
+319.5137E-03,+2.634160E-06
+324.4079E-03,+2.637967E-06
+329.5616E-03,+2.633451E-06
+334.4539E-03,+2.634059E-06
+339.5854E-03,+2.634257E-06
+344.4873E-03,+2.641809E-06
+349.3948E-03,+2.637740E-06
+354.5290E-03,+2.637842E-06
+359.4346E-03,+2.637875E-06
+364.3425E-03,+2.640965E-06
+369.4759E-03,+2.639546E-06
+374.3685E-03,+2.644314E-06
+379.5225E-03,+2.637093E-06
+384.4222E-03,+2.638765E-06
+389.3044E-03,+2.644460E-06
+394.4657E-03,+2.642040E-06
+399.3602E-03,+2.643560E-06
+404.4997E-03,+2.645612E-06
+409.4059E-03,+2.644374E-06
+414.3027E-03,+2.639019E-06
+419.4362E-03,+2.645724E-06
+424.3401E-03,+2.642828E-06
+429.4697E-03,+2.637424E-06
+434.3755E-03,+2.638478E-06
+439.2837E-03,+2.639450E-06
+444.4264E-03,+2.635330E-06
+449.3051E-03,+2.638798E-06
+454.2081E-03,+2.635274E-06
+459.3517E-03,+2.633786E-06
+464.2518E-03,+2.640593E-06
+469.3817E-03,+2.632213E-06
+474.2932E-03,+2.639356E-06
+479.1896E-03,+2.635676E-06
+484.3285E-03,+2.638420E-06
+489.2394E-03,+2.644294E-06
+494.3712E-03,+2.635781E-06
+499.3390E-03,+2.634163E-06

MicroMag 2900/3900 Data File ends
