MicroMag 2900/3900 Data File (Series 0016.002)
Direct moment vs. field; Hysteresis loop

INSTRUMENT
Configuration                   VSM
Temperature control             None
Hardware version                0004
Software version                06/08/2012
Units of measure                Hybrid SI
Temperature in                  Kelvin

SAMPLE
Mass                            N/A
Volume                          N/A
Demagnetizing factor            N/A

SETTINGS
Field range                    +1.000000E+00
Field (command)                 N/A
Moment range                   +5.000000E-06
Averaging time                 +200.0000E-03
Temperature (command)           N/A
Tmprtr difference correction    No
Orientation                     0.000000E+00
Vibration amplitude             1.0
Calibration factor             +3.570920E+00
Operating frequency            +83.00000E+00
Sweep mode                      Discrete
Pause after sweep increment    +300.0000E-03

MEASUREMENT
Description                    "DQ15-33B1"
Field (measured)                N/A
Temperature (measured)          N/A
Averages (completed)            1
Measured on                     10/29/2016  16:39
Elapsed time                   +206.9748E+00

PROCESSING
Background subtraction          No
Delta-m processing              N/A
Demagnetizing factor            No
Normalization                   No
Normalization factor            N/A
Offset (field)                  No
Offset (moment)                 No
Pole saturation                 No
Slope correction                No

VIEWPORT
Left                           -500.0000E-03
Right                          +500.0000E-03
Bottom                         -5.000000E-06
Top                            +5.000000E-06
Show X-axis?                    Yes
Show Y-axis?                    Yes

CHARACTERIZATION
Initial slope                   N/A
Saturation                     +2.643985E-06
Remanence                      +122.4830E-09
Coercivity                     +4.165693E-03
S*                             -267.7650E-06

SCRIPT
Averages (target)               1
Averaging time                 +200.0000E-03
Demagnetize?                    No
Maximum field                  +500.0000E-03
Field increment                +5.000000E-03
Hysteresis loop?                Yes
Initial magnetization?          No
Pause                          +1.000000E+00
Saturate before measuring?      No
Number of segments              2
Number of data                  402

Segment   Averaging      Initial        Field         Final                    Final 
 Number      Time         Field       Increment       Field         Pause      Index 
             (s)           (T)           (T)           (T)           (s)     
0000001,+200.0000E-03,+500.0000E-03,+5.000000E-03,-500.0000E-03,+1.000000E+00,0000201
0000002,+200.0000E-03,-500.0000E-03,+5.000000E-03,+500.0000E-03,+1.000000E+00,0000402

                           
    Field         Moment   
     (T)          (Am²)    
+499.3499E-03,+2.645216E-06
+494.5678E-03,+2.645885E-06
+489.4584E-03,+2.644751E-06
+484.5454E-03,+2.651233E-06
+479.4056E-03,+2.649149E-06
+474.5058E-03,+2.651767E-06
+469.5862E-03,+2.649420E-06
+464.4404E-03,+2.651643E-06
+459.5493E-03,+2.649458E-06
+454.3877E-03,+2.648591E-06
+449.4933E-03,+2.650932E-06
+444.5975E-03,+2.649138E-06
+439.4694E-03,+2.648428E-06
+434.5500E-03,+2.651315E-06
+429.6407E-03,+2.655629E-06
+424.5028E-03,+2.644802E-06
+419.5968E-03,+2.652011E-06
+414.4689E-03,+2.654525E-06
+409.5656E-03,+2.655284E-06
+404.6460E-03,+2.653497E-06
+399.5250E-03,+2.659011E-06
+394.6014E-03,+2.653385E-06
+389.4473E-03,+2.650510E-06
+384.5765E-03,+2.655231E-06
+379.6695E-03,+2.653836E-06
+374.5193E-03,+2.649967E-06
+369.6220E-03,+2.648568E-06
+364.4904E-03,+2.650588E-06
+359.5780E-03,+2.653240E-06
+354.6776E-03,+2.646522E-06
+349.5419E-03,+2.649083E-06
+344.6397E-03,+2.649295E-06
+339.7366E-03,+2.652081E-06
+334.5920E-03,+2.649189E-06
+329.6929E-03,+2.648616E-06
+324.5458E-03,+2.646207E-06
+319.6566E-03,+2.647384E-06
+314.7514E-03,+2.647368E-06
+309.6015E-03,+2.649467E-06
+304.7077E-03,+2.645679E-06
+299.5741E-03,+2.637742E-06
+294.6651E-03,+2.642883E-06
+289.7746E-03,+2.641470E-06
+284.6368E-03,+2.638133E-06
+279.7143E-03,+2.633881E-06
+274.5760E-03,+2.631955E-06
+269.6778E-03,+2.631073E-06
+264.7733E-03,+2.626487E-06
+259.6288E-03,+2.626083E-06
+254.7325E-03,+2.624343E-06
+249.8235E-03,+2.619034E-06
+244.6940E-03,+2.618073E-06
+239.7958E-03,+2.609104E-06
+234.6420E-03,+2.609522E-06
+229.7497E-03,+2.606672E-06
+224.8498E-03,+2.598784E-06
+219.7084E-03,+2.595987E-06
+214.8022E-03,+2.589048E-06
+209.6609E-03,+2.585897E-06
+204.7667E-03,+2.577861E-06
+199.8591E-03,+2.573536E-06
+194.7219E-03,+2.562884E-06
+189.8195E-03,+2.553281E-06
+184.6650E-03,+2.543444E-06
+179.7924E-03,+2.535699E-06
+174.8813E-03,+2.516211E-06
+169.7263E-03,+2.511717E-06
+164.8424E-03,+2.496978E-06
+159.7033E-03,+2.483991E-06
+154.7841E-03,+2.466593E-06
+149.8754E-03,+2.444556E-06
+144.7443E-03,+2.421377E-06
+139.8427E-03,+2.397127E-06
+134.9443E-03,+2.380249E-06
+129.8145E-03,+2.343155E-06
+124.9046E-03,+2.316465E-06
+119.7681E-03,+2.280352E-06
+114.8634E-03,+2.242569E-06
+109.9565E-03,+2.205016E-06
+104.8230E-03,+2.156168E-06
+99.92861E-03,+2.112631E-06
+94.78433E-03,+2.057592E-06
+89.87472E-03,+1.993610E-06
+84.97742E-03,+1.931671E-06
+79.84713E-03,+1.859964E-06
+74.93361E-03,+1.801469E-06
+69.79287E-03,+1.718059E-06
+64.88635E-03,+1.630218E-06
+59.99644E-03,+1.557001E-06
+54.85585E-03,+1.449704E-06
+49.93709E-03,+1.367869E-06
+45.04485E-03,+1.264338E-06
+39.91283E-03,+1.159062E-06
+35.01968E-03,+1.048671E-06
+29.85926E-03,+928.4610E-09
+24.96553E-03,+809.5341E-09
+20.06192E-03,+686.7303E-09
+14.92135E-03,+558.5362E-09
+10.03948E-03,+423.6501E-09
+4.902645E-03,+277.1760E-09
-10.72325E-06,+133.4690E-09
-4.884360E-03,-8.898044E-09
-10.02004E-03,-157.8568E-09
-14.91804E-03,-324.2001E-09
-20.06404E-03,-474.7309E-09
-24.95931E-03,-623.9946E-09
-29.86241E-03,-754.4929E-09
-35.02183E-03,-893.9794E-09
-39.90964E-03,-1.024489E-06
-45.04402E-03,-1.158712E-06
-49.94059E-03,-1.269347E-06
-54.85355E-03,-1.373200E-06
-59.99176E-03,-1.471204E-06
-64.88610E-03,-1.579425E-06
-69.78788E-03,-1.652480E-06
-74.94064E-03,-1.747020E-06
-79.84092E-03,-1.816755E-06
-84.97996E-03,-1.898387E-06
-89.86404E-03,-1.956263E-06
-94.77808E-03,-2.017221E-06
-99.92138E-03,-2.090935E-06
-104.8132E-03,-2.129706E-06
-109.9649E-03,-2.175188E-06
-114.8682E-03,-2.230284E-06
-119.7483E-03,-2.255604E-06
-124.8990E-03,-2.293944E-06
-129.8070E-03,-2.338486E-06
-134.9267E-03,-2.365256E-06
-139.8282E-03,-2.387992E-06
-144.7369E-03,-2.417886E-06
-149.8784E-03,-2.433276E-06
-154.7730E-03,-2.450834E-06
-159.6924E-03,-2.470759E-06
-164.8277E-03,-2.501294E-06
-169.7128E-03,-2.496761E-06
-174.8706E-03,-2.505548E-06
-179.7776E-03,-2.527177E-06
-184.6675E-03,-2.538665E-06
-189.8183E-03,-2.552448E-06
-194.7012E-03,-2.559912E-06
-199.8331E-03,-2.570254E-06
-204.7476E-03,-2.557959E-06
-209.6409E-03,-2.583218E-06
-214.7804E-03,-2.576621E-06
-219.7008E-03,-2.589012E-06
-224.8350E-03,-2.603181E-06
-229.7232E-03,-2.595929E-06
-234.6361E-03,-2.605373E-06
-239.7759E-03,-2.608932E-06
-244.6754E-03,-2.620236E-06
-249.8062E-03,-2.618056E-06
-254.7071E-03,-2.623745E-06
-259.6029E-03,-2.623896E-06
-264.7489E-03,-2.615008E-06
-269.6458E-03,-2.630995E-06
-274.5454E-03,-2.633258E-06
-279.6917E-03,-2.627453E-06
-284.6074E-03,-2.630484E-06
-289.7437E-03,-2.639192E-06
-294.6202E-03,-2.639956E-06
-299.5348E-03,-2.634654E-06
-304.6715E-03,-2.634460E-06
-309.5696E-03,-2.644503E-06
-314.7149E-03,-2.639402E-06
-319.6214E-03,-2.639444E-06
-324.5128E-03,-2.639017E-06
-329.6591E-03,-2.638667E-06
-334.5632E-03,-2.647666E-06
-339.6878E-03,-2.646021E-06
-344.5869E-03,-2.647869E-06
-349.4979E-03,-2.651092E-06
-354.6264E-03,-2.648534E-06
-359.5376E-03,-2.654226E-06
-364.4438E-03,-2.652801E-06
-369.5738E-03,-2.651115E-06
-374.4611E-03,-2.650205E-06
-379.6262E-03,-2.642132E-06
-384.5201E-03,-2.643416E-06
-389.4153E-03,-2.649575E-06
-394.5630E-03,-2.649384E-06
-399.4551E-03,-2.644057E-06
-404.5973E-03,-2.648536E-06
-409.5050E-03,-2.649006E-06
-414.4031E-03,-2.643911E-06
-419.5332E-03,-2.652566E-06
-424.4374E-03,-2.646564E-06
-429.5745E-03,-2.646646E-06
-434.4796E-03,-2.648201E-06
-439.3747E-03,-2.648228E-06
-444.5256E-03,-2.643773E-06
-449.4028E-03,-2.649787E-06
-454.3070E-03,-2.646917E-06
-459.4554E-03,-2.649306E-06
-464.3605E-03,-2.642558E-06
-469.4898E-03,-2.645807E-06
-474.4013E-03,-2.650514E-06
-479.3021E-03,-2.645698E-06
-484.4255E-03,-2.642526E-06
-489.3416E-03,-2.646123E-06
-494.4849E-03,-2.644678E-06
-499.4554E-03,-2.642078E-06

-499.4553E-03,-2.639969E-06
-494.6778E-03,-2.642662E-06
-489.5780E-03,-2.641194E-06
-484.6474E-03,-2.642415E-06
-479.5324E-03,-2.644400E-06
-474.6171E-03,-2.646100E-06
-469.6999E-03,-2.649623E-06
-464.5576E-03,-2.644949E-06
-459.6527E-03,-2.647587E-06
-454.4962E-03,-2.649421E-06
-449.5963E-03,-2.647502E-06
-444.7033E-03,-2.647394E-06
-439.5645E-03,-2.648775E-06
-434.6577E-03,-2.644647E-06
-429.7426E-03,-2.646666E-06
-424.6043E-03,-2.644717E-06
-419.7068E-03,-2.646507E-06
-414.5668E-03,-2.651872E-06
-409.6705E-03,-2.652009E-06
-404.7500E-03,-2.646764E-06
-399.6187E-03,-2.647945E-06
-394.7344E-03,-2.652341E-06
-389.5695E-03,-2.652837E-06
-384.6665E-03,-2.648557E-06
-379.7763E-03,-2.645201E-06
-374.6244E-03,-2.652250E-06
-369.7263E-03,-2.648809E-06
-364.5948E-03,-2.646707E-06
-359.6805E-03,-2.645925E-06
-354.7824E-03,-2.645820E-06
-349.6336E-03,-2.644587E-06
-344.7331E-03,-2.647144E-06
-339.8361E-03,-2.644328E-06
-334.7143E-03,-2.650004E-06
-329.8012E-03,-2.645163E-06
-324.6514E-03,-2.643265E-06
-319.7504E-03,-2.640542E-06
-314.8653E-03,-2.643892E-06
-309.7142E-03,-2.639987E-06
-304.8094E-03,-2.639787E-06
-299.6726E-03,-2.635199E-06
-294.7541E-03,-2.637101E-06
-289.8736E-03,-2.635526E-06
-284.7416E-03,-2.635676E-06
-279.8091E-03,-2.630394E-06
-274.6729E-03,-2.627536E-06
-269.7818E-03,-2.629229E-06
-264.8819E-03,-2.628222E-06
-259.7345E-03,-2.621674E-06
-254.8361E-03,-2.620762E-06
-249.9334E-03,-2.615073E-06
-244.7924E-03,-2.613612E-06
-239.9100E-03,-2.606985E-06
-234.7600E-03,-2.609273E-06
-229.8429E-03,-2.601253E-06
-224.9490E-03,-2.597423E-06
-219.8131E-03,-2.593810E-06
-214.9006E-03,-2.587798E-06
-209.7681E-03,-2.578423E-06
-204.8684E-03,-2.576995E-06
-199.9607E-03,-2.573543E-06
-194.8199E-03,-2.560107E-06
-189.9339E-03,-2.549531E-06
-184.7841E-03,-2.537426E-06
-179.8795E-03,-2.526457E-06
-174.9897E-03,-2.517466E-06
-169.8305E-03,-2.506607E-06
-164.9319E-03,-2.495954E-06
-159.8063E-03,-2.479902E-06
-154.8938E-03,-2.459644E-06
-149.9854E-03,-2.439427E-06
-144.8427E-03,-2.415266E-06
-139.9433E-03,-2.400710E-06
-135.0506E-03,-2.372549E-06
-129.9047E-03,-2.333679E-06
-124.9993E-03,-2.312163E-06
-119.8720E-03,-2.272295E-06
-114.9597E-03,-2.240035E-06
-110.0801E-03,-2.197140E-06
-104.9220E-03,-2.149957E-06
-100.0240E-03,-2.093285E-06
-94.88603E-03,-2.040277E-06
-89.96639E-03,-1.995121E-06
-85.08226E-03,-1.934913E-06
-79.93542E-03,-1.868928E-06
-75.03214E-03,-1.787342E-06
-69.90262E-03,-1.713678E-06
-64.99816E-03,-1.631724E-06
-60.09663E-03,-1.545194E-06
-54.95356E-03,-1.452350E-06
-50.05077E-03,-1.362111E-06
-45.15560E-03,-1.253157E-06
-40.01950E-03,-1.148731E-06
-35.13405E-03,-1.042075E-06
-29.97752E-03,-928.3602E-09
-25.06460E-03,-799.8764E-09
-20.17016E-03,-686.8216E-09
-15.01164E-03,-546.9547E-09
-10.11996E-03,-410.4998E-09
-4.989029E-03,-271.7098E-09
-119.2380E-06,-114.7171E-09
+4.795859E-03,+30.94673E-09
+9.922433E-03,+174.2511E-09
+14.80479E-03,+334.3321E-09
+19.96082E-03,+474.3818E-09
+24.86485E-03,+631.4756E-09
+29.74438E-03,+762.5482E-09
+34.90264E-03,+910.5364E-09
+39.80377E-03,+1.042092E-06
+44.94071E-03,+1.165809E-06
+49.83778E-03,+1.273695E-06
+54.73759E-03,+1.375887E-06
+59.88115E-03,+1.484033E-06
+64.78909E-03,+1.579919E-06
+69.68699E-03,+1.658848E-06
+74.81565E-03,+1.753215E-06
+79.74295E-03,+1.825814E-06
+84.88189E-03,+1.898077E-06
+89.77400E-03,+1.974026E-06
+94.68108E-03,+2.029857E-06
+99.81190E-03,+2.084010E-06
+104.7116E-03,+2.136846E-06
+109.8578E-03,+2.185039E-06
+114.7623E-03,+2.235789E-06
+119.6460E-03,+2.265436E-06
+124.7975E-03,+2.310192E-06
+129.6929E-03,+2.346018E-06
+134.8422E-03,+2.362015E-06
+139.7317E-03,+2.398024E-06
+144.6177E-03,+2.417310E-06
+149.7665E-03,+2.442255E-06
+154.6664E-03,+2.459077E-06
+159.5788E-03,+2.479476E-06
+164.7170E-03,+2.497406E-06
+169.6127E-03,+2.505873E-06
+174.7634E-03,+2.521844E-06
+179.6671E-03,+2.534512E-06
+184.5485E-03,+2.549467E-06
+189.6989E-03,+2.561017E-06
+194.6094E-03,+2.560796E-06
+199.7291E-03,+2.575698E-06
+204.6451E-03,+2.581821E-06
+209.5411E-03,+2.576917E-06
+214.6781E-03,+2.587574E-06
+219.5886E-03,+2.605115E-06
+224.7258E-03,+2.601314E-06
+229.6240E-03,+2.601392E-06
+234.5139E-03,+2.611674E-06
+239.6658E-03,+2.622005E-06
+244.5726E-03,+2.612041E-06
+249.7070E-03,+2.617703E-06
+254.6034E-03,+2.618736E-06
+259.5005E-03,+2.629111E-06
+264.6422E-03,+2.627958E-06
+269.5394E-03,+2.629803E-06
+274.4433E-03,+2.627369E-06
+279.5726E-03,+2.633508E-06
+284.5099E-03,+2.634834E-06
+289.6388E-03,+2.638691E-06
+294.5227E-03,+2.640558E-06
+299.4373E-03,+2.637766E-06
+304.5727E-03,+2.640515E-06
+309.4674E-03,+2.648220E-06
+314.6191E-03,+2.650431E-06
+319.5074E-03,+2.645296E-06
+324.4131E-03,+2.643929E-06
+329.5602E-03,+2.653733E-06
+334.4468E-03,+2.647528E-06
+339.5900E-03,+2.650007E-06
+344.4816E-03,+2.650118E-06
+349.3799E-03,+2.654275E-06
+354.5240E-03,+2.655241E-06
+359.4325E-03,+2.653596E-06
+364.3335E-03,+2.649746E-06
+369.4685E-03,+2.647885E-06
+374.3713E-03,+2.650101E-06
+379.5168E-03,+2.655636E-06
+384.4171E-03,+2.650706E-06
+389.2980E-03,+2.651912E-06
+394.4556E-03,+2.651722E-06
+399.3517E-03,+2.652161E-06
+404.4810E-03,+2.656331E-06
+409.3934E-03,+2.652733E-06
+414.2966E-03,+2.649333E-06
+419.4276E-03,+2.644289E-06
+424.3274E-03,+2.654426E-06
+429.4666E-03,+2.656768E-06
+434.3658E-03,+2.649624E-06
+439.2724E-03,+2.651353E-06
+444.4145E-03,+2.648819E-06
+449.2986E-03,+2.651099E-06
+454.1922E-03,+2.653683E-06
+459.3442E-03,+2.653034E-06
+464.2405E-03,+2.653201E-06
+469.3668E-03,+2.654343E-06
+474.2815E-03,+2.650941E-06
+479.1807E-03,+2.651420E-06
+484.3037E-03,+2.647076E-06
+489.2294E-03,+2.651859E-06
+494.3664E-03,+2.648485E-06
+499.3326E-03,+2.645095E-06

MicroMag 2900/3900 Data File ends
