MicroMag 2900/3900 Data File (Series 0016.002)
Direct moment vs. field; Hysteresis loop

INSTRUMENT
Configuration                   VSM
Temperature control             None
Hardware version                0004
Software version                06/08/2012
Units of measure                Hybrid SI
Temperature in                  Kelvin

SAMPLE
Mass                            N/A
Volume                          N/A
Demagnetizing factor            N/A

SETTINGS
Field range                    +1.000000E+00
Field (command)                 N/A
Moment range                   +5.000000E-06
Averaging time                 +200.0000E-03
Temperature (command)           N/A
Tmprtr difference correction    No
Orientation                     0.000000E+00
Vibration amplitude             1.0
Calibration factor             +3.570920E+00
Operating frequency            +83.00000E+00
Sweep mode                      Discrete
Pause after sweep increment    +300.0000E-03

MEASUREMENT
Description                    "DQ15-33B1"
Field (measured)                N/A
Temperature (measured)          N/A
Averages (completed)            1
Measured on                     10/29/2016  16:18
Elapsed time                   +206.9459E+00

PROCESSING
Background subtraction          No
Delta-m processing              N/A
Demagnetizing factor            No
Normalization                   No
Normalization factor            N/A
Offset (field)                  No
Offset (moment)                 No
Pole saturation                 No
Slope correction                No

VIEWPORT
Left                           -500.0000E-03
Right                          +500.0000E-03
Bottom                         -5.000000E-06
Top                            +5.000000E-06
Show X-axis?                    Yes
Show Y-axis?                    Yes

CHARACTERIZATION
Initial slope                   N/A
Saturation                     +2.639825E-06
Remanence                      +121.4827E-09
Coercivity                     +4.134856E-03
S*                             +31.48327E-06

SCRIPT
Averages (target)               1
Averaging time                 +200.0000E-03
Demagnetize?                    No
Maximum field                  +500.0000E-03
Field increment                +5.000000E-03
Hysteresis loop?                Yes
Initial magnetization?          No
Pause                          +1.000000E+00
Saturate before measuring?      No
Number of segments              2
Number of data                  402

Segment   Averaging      Initial        Field         Final                    Final 
 Number      Time         Field       Increment       Field         Pause      Index 
             (s)           (T)           (T)           (T)           (s)     
0000001,+200.0000E-03,+500.0000E-03,+5.000000E-03,-500.0000E-03,+1.000000E+00,0000201
0000002,+200.0000E-03,-500.0000E-03,+5.000000E-03,+500.0000E-03,+1.000000E+00,0000402

                           
    Field         Moment   
     (T)          (Am²)    
+499.3454E-03,+2.641513E-06
+494.5652E-03,+2.637694E-06
+489.4612E-03,+2.641369E-06
+484.5541E-03,+2.644022E-06
+479.4094E-03,+2.640600E-06
+474.4932E-03,+2.644265E-06
+469.5817E-03,+2.645780E-06
+464.4553E-03,+2.646870E-06
+459.5379E-03,+2.644440E-06
+454.3912E-03,+2.641877E-06
+449.4852E-03,+2.648357E-06
+444.5997E-03,+2.646627E-06
+439.4610E-03,+2.648625E-06
+434.5464E-03,+2.650978E-06
+429.6366E-03,+2.647414E-06
+424.5079E-03,+2.647376E-06
+419.6030E-03,+2.645667E-06
+414.4712E-03,+2.649102E-06
+409.5602E-03,+2.649086E-06
+404.6580E-03,+2.645491E-06
+399.5157E-03,+2.647326E-06
+394.6150E-03,+2.642196E-06
+389.4563E-03,+2.644016E-06
+384.5757E-03,+2.649819E-06
+379.6607E-03,+2.649025E-06
+374.5131E-03,+2.646792E-06
+369.6241E-03,+2.650558E-06
+364.4894E-03,+2.643693E-06
+359.5782E-03,+2.648738E-06
+354.6684E-03,+2.649344E-06
+349.5393E-03,+2.642892E-06
+344.6273E-03,+2.644463E-06
+339.7270E-03,+2.644413E-06
+334.5954E-03,+2.642277E-06
+329.7065E-03,+2.643389E-06
+324.5510E-03,+2.641554E-06
+319.6389E-03,+2.641535E-06
+314.7479E-03,+2.638672E-06
+309.6024E-03,+2.642211E-06
+304.7111E-03,+2.638368E-06
+299.5606E-03,+2.636833E-06
+294.6607E-03,+2.636070E-06
+289.7740E-03,+2.635341E-06
+284.6341E-03,+2.628677E-06
+279.7111E-03,+2.635325E-06
+274.5785E-03,+2.629095E-06
+269.6716E-03,+2.624847E-06
+264.7661E-03,+2.625934E-06
+259.6254E-03,+2.631436E-06
+254.7339E-03,+2.619799E-06
+249.8304E-03,+2.612128E-06
+244.6995E-03,+2.614380E-06
+239.7919E-03,+2.608114E-06
+234.6516E-03,+2.607239E-06
+229.7457E-03,+2.600038E-06
+224.8546E-03,+2.594971E-06
+219.7094E-03,+2.593870E-06
+214.8059E-03,+2.587481E-06
+209.6612E-03,+2.580053E-06
+204.7637E-03,+2.571828E-06
+199.8548E-03,+2.565923E-06
+194.7343E-03,+2.557224E-06
+189.8237E-03,+2.549427E-06
+184.6657E-03,+2.537619E-06
+179.7884E-03,+2.528327E-06
+174.8785E-03,+2.512782E-06
+169.7349E-03,+2.507241E-06
+164.8287E-03,+2.488858E-06
+159.7003E-03,+2.476198E-06
+154.7767E-03,+2.459948E-06
+149.8797E-03,+2.436081E-06
+144.7509E-03,+2.422312E-06
+139.8417E-03,+2.391949E-06
+134.9446E-03,+2.374378E-06
+129.8039E-03,+2.341395E-06
+124.9132E-03,+2.312700E-06
+119.7678E-03,+2.277111E-06
+114.8714E-03,+2.232591E-06
+109.9641E-03,+2.196915E-06
+104.8193E-03,+2.156070E-06
+99.92252E-03,+2.108293E-06
+94.78580E-03,+2.049361E-06
+89.88322E-03,+1.991173E-06
+84.98747E-03,+1.928970E-06
+79.84500E-03,+1.866768E-06
+74.92553E-03,+1.789572E-06
+69.79150E-03,+1.724013E-06
+64.90140E-03,+1.637262E-06
+59.99345E-03,+1.541165E-06
+54.84511E-03,+1.461348E-06
+49.94997E-03,+1.367730E-06
+45.05253E-03,+1.266043E-06
+39.91390E-03,+1.146676E-06
+35.01427E-03,+1.038351E-06
+29.86153E-03,+931.5006E-09
+24.96231E-03,+810.1804E-09
+20.06128E-03,+690.5461E-09
+14.91548E-03,+553.6670E-09
+10.02979E-03,+418.6637E-09
+4.902490E-03,+277.9509E-09
-10.60229E-06,+131.8028E-09
-4.895698E-03,-17.34380E-09
-10.01969E-03,-157.9739E-09
-14.91878E-03,-322.7001E-09
-20.06932E-03,-482.0573E-09
-24.96939E-03,-613.3063E-09
-29.86868E-03,-768.7020E-09
-35.02239E-03,-901.9540E-09
-39.90700E-03,-1.025394E-06
-45.04906E-03,-1.139147E-06
-49.94598E-03,-1.255736E-06
-54.85278E-03,-1.369492E-06
-59.99480E-03,-1.480521E-06
-64.88842E-03,-1.570196E-06
-69.78364E-03,-1.654378E-06
-74.92494E-03,-1.743845E-06
-79.84405E-03,-1.821725E-06
-84.98162E-03,-1.902002E-06
-89.86227E-03,-1.973230E-06
-94.78342E-03,-2.021494E-06
-99.91828E-03,-2.076962E-06
-104.8239E-03,-2.129447E-06
-109.9671E-03,-2.174240E-06
-114.8698E-03,-2.220080E-06
-119.7479E-03,-2.250388E-06
-124.8915E-03,-2.306813E-06
-129.8003E-03,-2.329431E-06
-134.9415E-03,-2.364877E-06
-139.8280E-03,-2.388837E-06
-144.7412E-03,-2.407466E-06
-149.8770E-03,-2.430993E-06
-154.7810E-03,-2.452276E-06
-159.7023E-03,-2.462025E-06
-164.8266E-03,-2.478146E-06
-169.7194E-03,-2.490557E-06
-174.8763E-03,-2.511522E-06
-179.7701E-03,-2.524328E-06
-184.6685E-03,-2.542355E-06
-189.8151E-03,-2.530141E-06
-194.7090E-03,-2.546721E-06
-199.8458E-03,-2.567501E-06
-204.7545E-03,-2.572007E-06
-209.6537E-03,-2.582793E-06
-214.7809E-03,-2.586603E-06
-219.6929E-03,-2.590537E-06
-224.8379E-03,-2.588708E-06
-229.7299E-03,-2.598596E-06
-234.6412E-03,-2.591042E-06
-239.7809E-03,-2.601703E-06
-244.6779E-03,-2.601782E-06
-249.8099E-03,-2.607746E-06
-254.7074E-03,-2.608721E-06
-259.6187E-03,-2.615418E-06
-264.7508E-03,-2.620505E-06
-269.6508E-03,-2.619854E-06
-274.5420E-03,-2.625937E-06
-279.6873E-03,-2.623629E-06
-284.6043E-03,-2.619934E-06
-289.7472E-03,-2.626630E-06
-294.6290E-03,-2.630951E-06
-299.5375E-03,-2.633697E-06
-304.6765E-03,-2.632707E-06
-309.5759E-03,-2.636705E-06
-314.7272E-03,-2.634033E-06
-319.6263E-03,-2.637956E-06
-324.5118E-03,-2.632882E-06
-329.6723E-03,-2.637643E-06
-334.5690E-03,-2.631889E-06
-339.6921E-03,-2.642064E-06
-344.5886E-03,-2.639271E-06
-349.5013E-03,-2.641216E-06
-354.6351E-03,-2.643366E-06
-359.5413E-03,-2.641457E-06
-364.4505E-03,-2.642746E-06
-369.5769E-03,-2.647051E-06
-374.4687E-03,-2.646676E-06
-379.6197E-03,-2.647014E-06
-384.5249E-03,-2.640593E-06
-389.4291E-03,-2.643973E-06
-394.5712E-03,-2.642647E-06
-399.4636E-03,-2.643369E-06
-404.5921E-03,-2.644978E-06
-409.5177E-03,-2.641357E-06
-414.3938E-03,-2.643956E-06
-419.5361E-03,-2.642946E-06
-424.4395E-03,-2.639774E-06
-429.5757E-03,-2.639992E-06
-434.4812E-03,-2.647646E-06
-439.3811E-03,-2.642961E-06
-444.5330E-03,-2.644708E-06
-449.4193E-03,-2.643286E-06
-454.3078E-03,-2.641637E-06
-459.4604E-03,-2.647128E-06
-464.3608E-03,-2.643260E-06
-469.4954E-03,-2.644596E-06
-474.4111E-03,-2.642570E-06
-479.3047E-03,-2.640182E-06
-484.4274E-03,-2.639764E-06
-489.3619E-03,-2.643964E-06
-494.4888E-03,-2.637799E-06
-499.4556E-03,-2.636759E-06

-499.4563E-03,-2.641968E-06
-494.6826E-03,-2.637078E-06
-489.5757E-03,-2.638151E-06
-484.6523E-03,-2.639141E-06
-479.5292E-03,-2.639174E-06
-474.6220E-03,-2.643244E-06
-469.6974E-03,-2.642937E-06
-464.5563E-03,-2.641427E-06
-459.6515E-03,-2.639836E-06
-454.5006E-03,-2.638712E-06
-449.6070E-03,-2.640665E-06
-444.7065E-03,-2.642218E-06
-439.5659E-03,-2.643601E-06
-434.6553E-03,-2.643473E-06
-429.7535E-03,-2.643693E-06
-424.6114E-03,-2.643615E-06
-419.7064E-03,-2.644558E-06
-414.5686E-03,-2.643896E-06
-409.6735E-03,-2.644261E-06
-404.7564E-03,-2.646630E-06
-399.6257E-03,-2.642457E-06
-394.7306E-03,-2.642502E-06
-389.5855E-03,-2.642317E-06
-384.6745E-03,-2.644095E-06
-379.7804E-03,-2.647139E-06
-374.6199E-03,-2.647366E-06
-369.7324E-03,-2.644456E-06
-364.5970E-03,-2.644386E-06
-359.6890E-03,-2.642949E-06
-354.7734E-03,-2.645743E-06
-349.6431E-03,-2.646281E-06
-344.7379E-03,-2.638668E-06
-339.8371E-03,-2.639293E-06
-334.7154E-03,-2.643076E-06
-329.7948E-03,-2.645470E-06
-324.6469E-03,-2.637409E-06
-319.7559E-03,-2.634857E-06
-314.8579E-03,-2.633153E-06
-309.7157E-03,-2.637691E-06
-304.8090E-03,-2.637864E-06
-299.6712E-03,-2.631664E-06
-294.7523E-03,-2.631896E-06
-289.8760E-03,-2.628791E-06
-284.7410E-03,-2.626697E-06
-279.8159E-03,-2.621402E-06
-274.6844E-03,-2.624548E-06
-269.7771E-03,-2.620912E-06
-264.8755E-03,-2.622304E-06
-259.7359E-03,-2.616356E-06
-254.8367E-03,-2.612122E-06
-249.9350E-03,-2.614464E-06
-244.7920E-03,-2.605326E-06
-239.9027E-03,-2.608014E-06
-234.7569E-03,-2.604106E-06
-229.8533E-03,-2.592470E-06
-224.9631E-03,-2.587552E-06
-219.8175E-03,-2.587046E-06
-214.9066E-03,-2.580570E-06
-209.7564E-03,-2.576062E-06
-204.8751E-03,-2.571508E-06
-199.9591E-03,-2.562951E-06
-194.8169E-03,-2.551268E-06
-189.9258E-03,-2.545646E-06
-184.7911E-03,-2.538118E-06
-179.8854E-03,-2.523430E-06
-174.9819E-03,-2.516116E-06
-169.8348E-03,-2.499658E-06
-164.9370E-03,-2.486044E-06
-159.8045E-03,-2.469647E-06
-154.8821E-03,-2.458445E-06
-149.9920E-03,-2.432800E-06
-144.8556E-03,-2.413604E-06
-139.9431E-03,-2.392197E-06
-135.0470E-03,-2.368834E-06
-129.9080E-03,-2.337226E-06
-124.9967E-03,-2.308210E-06
-119.8668E-03,-2.272594E-06
-114.9607E-03,-2.227107E-06
-110.0769E-03,-2.199339E-06
-104.9381E-03,-2.146767E-06
-100.0279E-03,-2.097529E-06
-94.88270E-03,-2.041424E-06
-89.96781E-03,-1.992276E-06
-85.08930E-03,-1.928550E-06
-79.93648E-03,-1.854693E-06
-75.02364E-03,-1.783754E-06
-69.89808E-03,-1.709020E-06
-65.00849E-03,-1.625143E-06
-60.11095E-03,-1.537132E-06
-54.96373E-03,-1.456739E-06
-50.05720E-03,-1.365177E-06
-45.16251E-03,-1.259857E-06
-40.02109E-03,-1.141978E-06
-35.13125E-03,-1.038526E-06
-29.96379E-03,-914.3121E-09
-25.06844E-03,-802.2200E-09
-20.16517E-03,-675.2840E-09
-15.02194E-03,-536.5422E-09
-10.12185E-03,-410.9091E-09
-4.990057E-03,-267.4254E-09
-114.8924E-06,-114.0780E-09
+4.790762E-03,+23.86382E-09
+9.928994E-03,+186.1396E-09
+14.81437E-03,+336.0676E-09
+19.95782E-03,+484.7272E-09
+24.86169E-03,+631.2681E-09
+29.74923E-03,+773.2392E-09
+34.90962E-03,+912.9230E-09
+39.81043E-03,+1.025495E-06
+44.94326E-03,+1.161516E-06
+49.84205E-03,+1.269085E-06
+54.74638E-03,+1.388263E-06
+59.88560E-03,+1.494157E-06
+64.78819E-03,+1.576896E-06
+69.68722E-03,+1.665699E-06
+74.81409E-03,+1.751038E-06
+79.73532E-03,+1.834211E-06
+84.87936E-03,+1.907505E-06
+89.77591E-03,+1.966570E-06
+94.67546E-03,+2.027680E-06
+99.82028E-03,+2.083581E-06
+104.7047E-03,+2.140716E-06
+109.8554E-03,+2.184438E-06
+114.7549E-03,+2.218130E-06
+119.6553E-03,+2.255970E-06
+124.7985E-03,+2.317001E-06
+129.7008E-03,+2.331753E-06
+134.8281E-03,+2.359893E-06
+139.7309E-03,+2.390029E-06
+144.6327E-03,+2.411686E-06
+149.7691E-03,+2.435356E-06
+154.6670E-03,+2.459318E-06
+159.5769E-03,+2.467171E-06
+164.7234E-03,+2.494241E-06
+169.6164E-03,+2.505906E-06
+174.7658E-03,+2.525608E-06
+179.6688E-03,+2.529568E-06
+184.5556E-03,+2.546177E-06
+189.7051E-03,+2.553950E-06
+194.6100E-03,+2.556067E-06
+199.7328E-03,+2.558970E-06
+204.6423E-03,+2.576529E-06
+209.5426E-03,+2.586742E-06
+214.6843E-03,+2.592361E-06
+219.5843E-03,+2.590400E-06
+224.7265E-03,+2.605658E-06
+229.6255E-03,+2.596119E-06
+234.5198E-03,+2.600683E-06
+239.6713E-03,+2.611200E-06
+244.5704E-03,+2.611197E-06
+249.7095E-03,+2.620741E-06
+254.6088E-03,+2.623051E-06
+259.5044E-03,+2.617141E-06
+264.6427E-03,+2.627705E-06
+269.5425E-03,+2.627135E-06
+274.4519E-03,+2.635099E-06
+279.5761E-03,+2.624831E-06
+284.5065E-03,+2.632707E-06
+289.6425E-03,+2.639357E-06
+294.5302E-03,+2.645860E-06
+299.4377E-03,+2.632216E-06
+304.5668E-03,+2.647764E-06
+309.4622E-03,+2.639955E-06
+314.6150E-03,+2.644733E-06
+319.5186E-03,+2.643324E-06
+324.4025E-03,+2.640215E-06
+329.5609E-03,+2.647492E-06
+334.4495E-03,+2.647633E-06
+339.5833E-03,+2.640820E-06
+344.4852E-03,+2.644566E-06
+349.3830E-03,+2.651527E-06
+354.5335E-03,+2.647413E-06
+359.4275E-03,+2.642630E-06
+364.3363E-03,+2.645168E-06
+369.4714E-03,+2.651994E-06
+374.3673E-03,+2.645449E-06
+379.5250E-03,+2.647378E-06
+384.4169E-03,+2.654057E-06
+389.3049E-03,+2.652802E-06
+394.4512E-03,+2.647492E-06
+399.3584E-03,+2.647347E-06
+404.4926E-03,+2.654624E-06
+409.3864E-03,+2.648982E-06
+414.2964E-03,+2.648837E-06
+419.4278E-03,+2.650974E-06
+424.3325E-03,+2.643945E-06
+429.4655E-03,+2.649300E-06
+434.3781E-03,+2.651510E-06
+439.2770E-03,+2.647139E-06
+444.4241E-03,+2.651430E-06
+449.2992E-03,+2.645435E-06
+454.2004E-03,+2.651296E-06
+459.3460E-03,+2.645430E-06
+464.2468E-03,+2.648889E-06
+469.3785E-03,+2.647012E-06
+474.2789E-03,+2.644096E-06
+479.1832E-03,+2.650786E-06
+484.3167E-03,+2.643117E-06
+489.2308E-03,+2.642543E-06
+494.3664E-03,+2.641813E-06
+499.3475E-03,+2.636690E-06

MicroMag 2900/3900 Data File ends
