MicroMag 2900/3900 Data File (Series 0016.002)
Direct moment vs. field; Hysteresis loop

INSTRUMENT
Configuration                   VSM
Temperature control             None
Hardware version                0004
Software version                06/08/2012
Units of measure                Hybrid SI
Temperature in                  Kelvin

SAMPLE
Mass                            N/A
Volume                          N/A
Demagnetizing factor            N/A

SETTINGS
Field range                    +1.000000E+00
Field (command)                 N/A
Moment range                   +5.000000E-06
Averaging time                 +200.0000E-03
Temperature (command)           N/A
Tmprtr difference correction    No
Orientation                     0.000000E+00
Vibration amplitude             1.0
Calibration factor             +3.570920E+00
Operating frequency            +83.00000E+00
Sweep mode                      Discrete
Pause after sweep increment    +300.0000E-03

MEASUREMENT
Description                    "DQ15-33B1"
Field (measured)                N/A
Temperature (measured)          N/A
Averages (completed)            1
Measured on                     10/29/2016  15:22
Elapsed time                   +207.0666E+00

PROCESSING
Background subtraction          No
Delta-m processing              N/A
Demagnetizing factor            No
Normalization                   No
Normalization factor            N/A
Offset (field)                  No
Offset (moment)                 No
Pole saturation                 No
Slope correction                No

VIEWPORT
Left                           -500.0000E-03
Right                          +500.0000E-03
Bottom                         -5.000000E-06
Top                            +5.000000E-06
Show X-axis?                    Yes
Show Y-axis?                    Yes

CHARACTERIZATION
Initial slope                   N/A
Saturation                     +2.624435E-06
Remanence                      +125.6695E-09
Coercivity                     +4.153196E-03
S*                             -138.2255E-06

SCRIPT
Averages (target)               1
Averaging time                 +200.0000E-03
Demagnetize?                    No
Maximum field                  +500.0000E-03
Field increment                +5.000000E-03
Hysteresis loop?                Yes
Initial magnetization?          No
Pause                          +1.000000E+00
Saturate before measuring?      No
Number of segments              2
Number of data                  402

Segment   Averaging      Initial        Field         Final                    Final 
 Number      Time         Field       Increment       Field         Pause      Index 
             (s)           (T)           (T)           (T)           (s)     
0000001,+200.0000E-03,+500.0000E-03,+5.000000E-03,-500.0000E-03,+1.000000E+00,0000201
0000002,+200.0000E-03,-500.0000E-03,+5.000000E-03,+500.0000E-03,+1.000000E+00,0000402

                           
    Field         Moment   
     (T)          (Am²)    
+499.3568E-03,+2.625230E-06
+494.5744E-03,+2.627192E-06
+489.4746E-03,+2.625428E-06
+484.5589E-03,+2.626002E-06
+479.4117E-03,+2.623569E-06
+474.5086E-03,+2.624150E-06
+469.5981E-03,+2.630541E-06
+464.4600E-03,+2.629913E-06
+459.5559E-03,+2.629997E-06
+454.4106E-03,+2.632230E-06
+449.5016E-03,+2.627760E-06
+444.6186E-03,+2.632010E-06
+439.4726E-03,+2.633333E-06
+434.5551E-03,+2.634648E-06
+429.6429E-03,+2.633526E-06
+424.5043E-03,+2.628254E-06
+419.6087E-03,+2.631736E-06
+414.4780E-03,+2.631293E-06
+409.5631E-03,+2.631775E-06
+404.6682E-03,+2.634576E-06
+399.5278E-03,+2.634612E-06
+394.6165E-03,+2.633094E-06
+389.4705E-03,+2.630594E-06
+384.5751E-03,+2.631603E-06
+379.6688E-03,+2.635632E-06
+374.5266E-03,+2.632500E-06
+369.6402E-03,+2.631820E-06
+364.4895E-03,+2.634454E-06
+359.5831E-03,+2.631759E-06
+354.6804E-03,+2.631710E-06
+349.5374E-03,+2.628361E-06
+344.6428E-03,+2.630829E-06
+339.7328E-03,+2.626666E-06
+334.6005E-03,+2.624126E-06
+329.7001E-03,+2.629501E-06
+324.5505E-03,+2.629130E-06
+319.6585E-03,+2.626896E-06
+314.7525E-03,+2.624815E-06
+309.5998E-03,+2.624867E-06
+304.7080E-03,+2.623501E-06
+299.5832E-03,+2.625614E-06
+294.6601E-03,+2.617761E-06
+289.7777E-03,+2.617072E-06
+284.6431E-03,+2.618137E-06
+279.7053E-03,+2.614237E-06
+274.5779E-03,+2.615458E-06
+269.6787E-03,+2.612647E-06
+264.7786E-03,+2.611054E-06
+259.6401E-03,+2.605123E-06
+254.7393E-03,+2.604866E-06
+249.8389E-03,+2.602465E-06
+244.6982E-03,+2.595408E-06
+239.8026E-03,+2.601007E-06
+234.6509E-03,+2.588892E-06
+229.7505E-03,+2.584748E-06
+224.8494E-03,+2.582100E-06
+219.7094E-03,+2.578410E-06
+214.8019E-03,+2.568844E-06
+209.6637E-03,+2.561180E-06
+204.7633E-03,+2.554356E-06
+199.8557E-03,+2.551354E-06
+194.7266E-03,+2.540988E-06
+189.8232E-03,+2.538575E-06
+184.6613E-03,+2.526340E-06
+179.7986E-03,+2.514089E-06
+174.8810E-03,+2.504535E-06
+169.7259E-03,+2.493930E-06
+164.8352E-03,+2.479377E-06
+159.7015E-03,+2.460660E-06
+154.7834E-03,+2.445638E-06
+149.8830E-03,+2.430330E-06
+144.7456E-03,+2.400609E-06
+139.8350E-03,+2.384885E-06
+134.9388E-03,+2.353734E-06
+129.8012E-03,+2.327178E-06
+124.9103E-03,+2.302207E-06
+119.7658E-03,+2.268758E-06
+114.8624E-03,+2.228016E-06
+109.9639E-03,+2.188142E-06
+104.8198E-03,+2.132170E-06
+99.93250E-03,+2.088824E-06
+94.78888E-03,+2.034164E-06
+89.86580E-03,+1.982519E-06
+84.97455E-03,+1.918140E-06
+79.85206E-03,+1.850747E-06
+74.92635E-03,+1.786676E-06
+69.79512E-03,+1.703942E-06
+64.88967E-03,+1.631502E-06
+59.98977E-03,+1.542777E-06
+54.85364E-03,+1.463205E-06
+49.94835E-03,+1.353432E-06
+45.03635E-03,+1.258016E-06
+39.90867E-03,+1.150021E-06
+35.01339E-03,+1.047957E-06
+29.85093E-03,+919.2549E-09
+24.96975E-03,+805.1597E-09
+20.05939E-03,+671.2996E-09
+14.91158E-03,+549.2411E-09
+10.02708E-03,+417.4598E-09
+4.897778E-03,+287.8663E-09
-15.57684E-06,+130.0813E-09
-4.892073E-03,-15.21811E-09
-10.02866E-03,-175.6970E-09
-14.92100E-03,-326.4354E-09
-20.06765E-03,-485.8504E-09
-24.96492E-03,-614.7855E-09
-29.87351E-03,-762.5665E-09
-35.02782E-03,-890.8285E-09
-39.91761E-03,-1.018646E-06
-45.05964E-03,-1.145069E-06
-49.94768E-03,-1.261424E-06
-54.86186E-03,-1.373227E-06
-60.00556E-03,-1.472556E-06
-64.89460E-03,-1.560589E-06
-69.79519E-03,-1.650811E-06
-74.93582E-03,-1.730309E-06
-79.84983E-03,-1.797869E-06
-84.98362E-03,-1.879137E-06
-89.86820E-03,-1.958901E-06
-94.78515E-03,-2.005949E-06
-99.92773E-03,-2.061265E-06
-104.8216E-03,-2.126430E-06
-109.9686E-03,-2.170073E-06
-114.8671E-03,-2.200912E-06
-119.7609E-03,-2.251521E-06
-124.9029E-03,-2.275002E-06
-129.8067E-03,-2.309711E-06
-134.9391E-03,-2.333558E-06
-139.8389E-03,-2.367881E-06
-144.7463E-03,-2.392510E-06
-149.8798E-03,-2.417218E-06
-154.7835E-03,-2.450107E-06
-159.7000E-03,-2.449752E-06
-164.8270E-03,-2.455815E-06
-169.7298E-03,-2.491544E-06
-174.8872E-03,-2.495315E-06
-179.7767E-03,-2.512657E-06
-184.6859E-03,-2.530600E-06
-189.8212E-03,-2.535507E-06
-194.7150E-03,-2.543777E-06
-199.8471E-03,-2.544735E-06
-204.7645E-03,-2.561839E-06
-209.6516E-03,-2.562078E-06
-214.7896E-03,-2.565959E-06
-219.7004E-03,-2.576218E-06
-224.8483E-03,-2.575923E-06
-229.7301E-03,-2.590527E-06
-234.6354E-03,-2.584461E-06
-239.7893E-03,-2.592481E-06
-244.6873E-03,-2.593435E-06
-249.8204E-03,-2.595717E-06
-254.7257E-03,-2.596926E-06
-259.6273E-03,-2.611489E-06
-264.7514E-03,-2.607400E-06
-269.6678E-03,-2.605756E-06
-274.5571E-03,-2.603015E-06
-279.7008E-03,-2.615816E-06
-284.6148E-03,-2.610691E-06
-289.7421E-03,-2.616023E-06
-294.6355E-03,-2.610850E-06
-299.5533E-03,-2.620837E-06
-304.6866E-03,-2.618285E-06
-309.5862E-03,-2.629226E-06
-314.7418E-03,-2.617611E-06
-319.6289E-03,-2.619737E-06
-324.5180E-03,-2.630572E-06
-329.6733E-03,-2.625735E-06
-334.5773E-03,-2.628266E-06
-339.6984E-03,-2.628163E-06
-344.5985E-03,-2.620195E-06
-349.5101E-03,-2.630701E-06
-354.6557E-03,-2.623018E-06
-359.5590E-03,-2.633613E-06
-364.4672E-03,-2.629399E-06
-369.5965E-03,-2.627808E-06
-374.4880E-03,-2.622725E-06
-379.6439E-03,-2.626268E-06
-384.5344E-03,-2.624554E-06
-389.4366E-03,-2.621269E-06
-394.5740E-03,-2.632873E-06
-399.4755E-03,-2.625371E-06
-404.6004E-03,-2.634974E-06
-409.5251E-03,-2.627484E-06
-414.4213E-03,-2.628710E-06
-419.5543E-03,-2.627780E-06
-424.4576E-03,-2.627402E-06
-429.5920E-03,-2.631647E-06
-434.4955E-03,-2.630574E-06
-439.3972E-03,-2.626477E-06
-444.5404E-03,-2.622722E-06
-449.4367E-03,-2.624089E-06
-454.3337E-03,-2.627575E-06
-459.4738E-03,-2.623444E-06
-464.3657E-03,-2.628787E-06
-469.4989E-03,-2.620877E-06
-474.4232E-03,-2.627191E-06
-479.3235E-03,-2.622565E-06
-484.4452E-03,-2.626371E-06
-489.3706E-03,-2.616357E-06
-494.5147E-03,-2.624160E-06
-499.4749E-03,-2.621679E-06

-499.4669E-03,-2.626211E-06
-494.6974E-03,-2.623774E-06
-489.5908E-03,-2.623062E-06
-484.6774E-03,-2.625660E-06
-479.5382E-03,-2.625566E-06
-474.6348E-03,-2.624037E-06
-469.7119E-03,-2.630260E-06
-464.5663E-03,-2.626619E-06
-459.6675E-03,-2.626403E-06
-454.5052E-03,-2.627104E-06
-449.6083E-03,-2.624682E-06
-444.7235E-03,-2.630244E-06
-439.5678E-03,-2.630593E-06
-434.6595E-03,-2.631859E-06
-429.7637E-03,-2.629050E-06
-424.6262E-03,-2.627253E-06
-419.7199E-03,-2.627479E-06
-414.5750E-03,-2.627577E-06
-409.6821E-03,-2.627395E-06
-404.7730E-03,-2.626516E-06
-399.6423E-03,-2.631002E-06
-394.7470E-03,-2.624741E-06
-389.5939E-03,-2.630469E-06
-384.6880E-03,-2.630878E-06
-379.7852E-03,-2.631511E-06
-374.6275E-03,-2.629568E-06
-369.7384E-03,-2.631943E-06
-364.6066E-03,-2.629184E-06
-359.6964E-03,-2.626565E-06
-354.7880E-03,-2.626396E-06
-349.6438E-03,-2.626463E-06
-344.7444E-03,-2.624826E-06
-339.8451E-03,-2.626125E-06
-334.7146E-03,-2.629094E-06
-329.8052E-03,-2.624584E-06
-324.6584E-03,-2.625818E-06
-319.7565E-03,-2.623364E-06
-314.8699E-03,-2.622706E-06
-309.7248E-03,-2.625744E-06
-304.8146E-03,-2.620708E-06
-299.6858E-03,-2.620632E-06
-294.7581E-03,-2.618357E-06
-289.8747E-03,-2.616093E-06
-284.7351E-03,-2.615067E-06
-279.8243E-03,-2.612356E-06
-274.6824E-03,-2.608815E-06
-269.7834E-03,-2.608798E-06
-264.8815E-03,-2.605599E-06
-259.7472E-03,-2.606706E-06
-254.8477E-03,-2.598932E-06
-249.9386E-03,-2.596312E-06
-244.8034E-03,-2.595043E-06
-239.9101E-03,-2.589711E-06
-234.7636E-03,-2.587159E-06
-229.8567E-03,-2.582836E-06
-224.9569E-03,-2.577229E-06
-219.8271E-03,-2.570785E-06
-214.9066E-03,-2.569295E-06
-209.7681E-03,-2.564577E-06
-204.8707E-03,-2.554687E-06
-199.9641E-03,-2.556737E-06
-194.8250E-03,-2.537837E-06
-189.9448E-03,-2.533162E-06
-184.7899E-03,-2.525351E-06
-179.8912E-03,-2.516134E-06
-174.9872E-03,-2.504718E-06
-169.8365E-03,-2.485791E-06
-164.9445E-03,-2.478491E-06
-159.8061E-03,-2.460521E-06
-154.8899E-03,-2.441713E-06
-149.9906E-03,-2.424049E-06
-144.8520E-03,-2.401323E-06
-139.9472E-03,-2.373858E-06
-135.0495E-03,-2.359260E-06
-129.9238E-03,-2.325297E-06
-125.0052E-03,-2.296835E-06
-119.8634E-03,-2.258781E-06
-114.9726E-03,-2.226637E-06
-110.0726E-03,-2.183297E-06
-104.9318E-03,-2.137210E-06
-100.0286E-03,-2.095215E-06
-94.88459E-03,-2.035169E-06
-89.97074E-03,-1.971649E-06
-85.08863E-03,-1.916036E-06
-79.94526E-03,-1.845959E-06
-75.03840E-03,-1.779651E-06
-69.90087E-03,-1.700542E-06
-64.99668E-03,-1.625201E-06
-60.09814E-03,-1.542882E-06
-54.96133E-03,-1.446406E-06
-50.05118E-03,-1.355113E-06
-45.15610E-03,-1.254061E-06
-40.01847E-03,-1.144113E-06
-35.12985E-03,-1.030384E-06
-29.97016E-03,-908.1623E-09
-25.06672E-03,-796.9453E-09
-20.17227E-03,-671.4529E-09
-15.01500E-03,-549.6883E-09
-10.12204E-03,-406.7310E-09
-4.990666E-03,-269.1436E-09
-114.9114E-06,-124.2928E-09
+4.801137E-03,+26.95303E-09
+9.925286E-03,+185.4717E-09
+14.80843E-03,+327.8586E-09
+19.95836E-03,+488.3313E-09
+24.85856E-03,+622.9546E-09
+29.73851E-03,+763.0510E-09
+34.90860E-03,+905.6631E-09
+39.80494E-03,+1.024150E-06
+44.94389E-03,+1.141569E-06
+49.84741E-03,+1.263415E-06
+54.75072E-03,+1.379274E-06
+59.88197E-03,+1.462897E-06
+64.79462E-03,+1.562503E-06
+69.68288E-03,+1.655662E-06
+74.81386E-03,+1.742255E-06
+79.73963E-03,+1.813501E-06
+84.88422E-03,+1.885949E-06
+89.77538E-03,+1.948788E-06
+94.67027E-03,+2.015072E-06
+99.81212E-03,+2.071720E-06
+104.7170E-03,+2.126685E-06
+109.8534E-03,+2.166330E-06
+114.7647E-03,+2.214319E-06
+119.6606E-03,+2.241807E-06
+124.7958E-03,+2.288092E-06
+129.7015E-03,+2.321802E-06
+134.8360E-03,+2.355600E-06
+139.7338E-03,+2.377982E-06
+144.6411E-03,+2.391437E-06
+149.7692E-03,+2.431435E-06
+154.6653E-03,+2.439557E-06
+159.5880E-03,+2.464941E-06
+164.7273E-03,+2.469280E-06
+169.6101E-03,+2.494399E-06
+174.7749E-03,+2.502512E-06
+179.6758E-03,+2.511880E-06
+184.5536E-03,+2.525697E-06
+189.7112E-03,+2.549499E-06
+194.6141E-03,+2.552184E-06
+199.7513E-03,+2.553467E-06
+204.6484E-03,+2.558673E-06
+209.5533E-03,+2.568079E-06
+214.6837E-03,+2.572802E-06
+219.5922E-03,+2.574124E-06
+224.7333E-03,+2.582494E-06
+229.6278E-03,+2.582607E-06
+234.5250E-03,+2.595593E-06
+239.6768E-03,+2.591593E-06
+244.5738E-03,+2.590357E-06
+249.7184E-03,+2.603270E-06
+254.6161E-03,+2.615972E-06
+259.5066E-03,+2.608957E-06
+264.6520E-03,+2.609730E-06
+269.5566E-03,+2.617315E-06
+274.4488E-03,+2.610461E-06
+279.5903E-03,+2.611162E-06
+284.5124E-03,+2.623883E-06
+289.6454E-03,+2.621895E-06
+294.5416E-03,+2.619573E-06
+299.4487E-03,+2.620034E-06
+304.5876E-03,+2.624560E-06
+309.4797E-03,+2.625615E-06
+314.6199E-03,+2.623705E-06
+319.5160E-03,+2.622435E-06
+324.4210E-03,+2.629524E-06
+329.5552E-03,+2.623176E-06
+334.4589E-03,+2.628256E-06
+339.5896E-03,+2.640443E-06
+344.4974E-03,+2.633759E-06
+349.3965E-03,+2.631870E-06
+354.5406E-03,+2.626722E-06
+359.4342E-03,+2.630975E-06
+364.3484E-03,+2.634708E-06
+369.4797E-03,+2.629211E-06
+374.3770E-03,+2.630008E-06
+379.5242E-03,+2.633910E-06
+384.4226E-03,+2.636163E-06
+389.3073E-03,+2.635096E-06
+394.4573E-03,+2.635504E-06
+399.3656E-03,+2.633268E-06
+404.4990E-03,+2.637567E-06
+409.3978E-03,+2.628470E-06
+414.3058E-03,+2.631165E-06
+419.4337E-03,+2.632913E-06
+424.3452E-03,+2.632693E-06
+429.4685E-03,+2.632642E-06
+434.3753E-03,+2.632700E-06
+439.2769E-03,+2.635090E-06
+444.4230E-03,+2.634091E-06
+449.3052E-03,+2.635271E-06
+454.2018E-03,+2.632400E-06
+459.3435E-03,+2.633355E-06
+464.2475E-03,+2.627872E-06
+469.3799E-03,+2.634418E-06
+474.2966E-03,+2.628461E-06
+479.1947E-03,+2.629100E-06
+484.3255E-03,+2.631533E-06
+489.2467E-03,+2.631100E-06
+494.3775E-03,+2.627087E-06
+499.3405E-03,+2.625452E-06

MicroMag 2900/3900 Data File ends
