MicroMag 2900/3900 Data File (Series 0016.002)
Direct moment vs. field; Hysteresis loop

INSTRUMENT
Configuration                   VSM
Temperature control             None
Hardware version                0004
Software version                06/08/2012
Units of measure                Hybrid SI
Temperature in                  Kelvin

SAMPLE
Mass                            N/A
Volume                          N/A
Demagnetizing factor            N/A

SETTINGS
Field range                    +1.000000E+00
Field (command)                 N/A
Moment range                   +5.000000E-06
Averaging time                 +200.0000E-03
Temperature (command)           N/A
Tmprtr difference correction    No
Orientation                     0.000000E+00
Vibration amplitude             1.0
Calibration factor             +3.570920E+00
Operating frequency            +83.00000E+00
Sweep mode                      Continuous
Pause after sweep increment    +300.0000E-03

MEASUREMENT
Description                    "DQ15-33B1"
Field (measured)                N/A
Temperature (measured)          N/A
Averages (completed)            1
Measured on                     10/29/2016  14:15
Elapsed time                   +84.28764E+00

PROCESSING
Background subtraction          No
Delta-m processing              N/A
Demagnetizing factor            No
Normalization                   No
Normalization factor            N/A
Offset (field)                  No
Offset (moment)                 No
Pole saturation                 No
Slope correction                No

VIEWPORT
Left                           -500.0000E-03
Right                          +500.0000E-03
Bottom                         -5.000000E-06
Top                            +5.000000E-06
Show X-axis?                    Yes
Show Y-axis?                    Yes

CHARACTERIZATION
Initial slope                   N/A
Saturation                     +2.608169E-06
Remanence                      +98.43292E-09
Coercivity                     +3.944319E-03
S*                             +50.10856E-06

SCRIPT
Averages (target)               1
Averaging time                 +200.0000E-03
Demagnetize?                    No
Maximum field                  +500.0000E-03
Field increment                +5.000000E-03
Hysteresis loop?                Yes
Initial magnetization?          No
Pause                          +1.000000E+00
Saturate before measuring?      No
Number of segments              2
Number of data                  402

Segment   Averaging      Initial        Field         Final                    Final 
 Number      Time         Field       Increment       Field         Pause      Index 
             (s)           (T)           (T)           (T)           (s)     
0000001,+200.0000E-03,+500.0000E-03,+5.000000E-03,-500.0000E-03,+1.000000E+00,0000201
0000002,+200.0000E-03,-500.0000E-03,+5.000000E-03,+500.0000E-03,+1.000000E+00,0000402

                           
    Field         Moment   
     (T)          (Am²)    
+499.3598E-03,+2.612759E-06
+494.6382E-03,+2.607749E-06
+489.6424E-03,+2.609624E-06
+484.7019E-03,+2.614570E-06
+479.7452E-03,+2.617254E-06
+474.7955E-03,+2.613887E-06
+469.7036E-03,+2.617116E-06
+464.7625E-03,+2.615392E-06
+459.7836E-03,+2.617321E-06
+454.7289E-03,+2.616359E-06
+449.7589E-03,+2.617276E-06
+444.7497E-03,+2.622495E-06
+439.7635E-03,+2.616752E-06
+434.7381E-03,+2.618746E-06
+429.7309E-03,+2.611293E-06
+424.7095E-03,+2.620921E-06
+419.7347E-03,+2.615966E-06
+414.7579E-03,+2.612386E-06
+409.7474E-03,+2.623758E-06
+404.7483E-03,+2.621945E-06
+399.7987E-03,+2.617164E-06
+394.7088E-03,+2.619800E-06
+389.7585E-03,+2.619718E-06
+384.7569E-03,+2.611677E-06
+379.7605E-03,+2.615995E-06
+374.7755E-03,+2.619287E-06
+369.7362E-03,+2.607818E-06
+364.7740E-03,+2.622625E-06
+359.7716E-03,+2.615415E-06
+354.7720E-03,+2.612579E-06
+349.7813E-03,+2.622421E-06
+344.7646E-03,+2.622479E-06
+339.7402E-03,+2.614329E-06
+334.7910E-03,+2.615775E-06
+329.8016E-03,+2.605655E-06
+324.7863E-03,+2.621413E-06
+319.7860E-03,+2.615306E-06
+314.8619E-03,+2.624595E-06
+309.8089E-03,+2.616358E-06
+304.8216E-03,+2.614443E-06
+299.8099E-03,+2.624639E-06
+294.7984E-03,+2.613124E-06
+289.8175E-03,+2.599802E-06
+284.8604E-03,+2.616542E-06
+279.8340E-03,+2.586873E-06
+274.8233E-03,+2.590945E-06
+269.7942E-03,+2.604785E-06
+264.8355E-03,+2.598731E-06
+259.8492E-03,+2.586928E-06
+254.8415E-03,+2.586710E-06
+249.8420E-03,+2.584337E-06
+244.8470E-03,+2.596626E-06
+239.8470E-03,+2.574955E-06
+234.8778E-03,+2.555194E-06
+229.8752E-03,+2.568612E-06
+224.8300E-03,+2.569601E-06
+219.8583E-03,+2.574210E-06
+214.8624E-03,+2.561499E-06
+209.8902E-03,+2.559558E-06
+204.8859E-03,+2.557684E-06
+199.8946E-03,+2.571778E-06
+194.9025E-03,+2.534312E-06
+189.9126E-03,+2.503519E-06
+184.8954E-03,+2.489577E-06
+179.9259E-03,+2.498984E-06
+174.9001E-03,+2.493487E-06
+169.9124E-03,+2.499761E-06
+164.9322E-03,+2.452808E-06
+159.9407E-03,+2.439091E-06
+154.9073E-03,+2.407980E-06
+149.9254E-03,+2.418547E-06
+144.9384E-03,+2.363872E-06
+139.8623E-03,+2.358305E-06
+134.9552E-03,+2.355423E-06
+129.9613E-03,+2.287317E-06
+124.9357E-03,+2.252108E-06
+119.9432E-03,+2.250219E-06
+115.0153E-03,+2.230867E-06
+109.9612E-03,+2.190544E-06
+104.9725E-03,+2.100932E-06
+99.97030E-03,+2.080345E-06
+94.96813E-03,+2.073263E-06
+89.97475E-03,+1.924492E-06
+84.99045E-03,+1.910908E-06
+80.00800E-03,+1.835065E-06
+74.98135E-03,+1.767177E-06
+70.03346E-03,+1.743786E-06
+64.94157E-03,+1.631326E-06
+60.02304E-03,+1.528666E-06
+54.98789E-03,+1.407402E-06
+50.20673E-03,+1.312342E-06
+45.01395E-03,+1.256308E-06
+40.03076E-03,+1.143147E-06
+35.03491E-03,+993.8992E-09
+30.05251E-03,+916.8029E-09
+25.04946E-03,+776.5597E-09
+20.04539E-03,+710.6001E-09
+15.06681E-03,+537.1047E-09
+10.08762E-03,+439.5269E-09
+5.093005E-03,+254.9442E-09
+103.7461E-06,+75.89896E-09
-4.911425E-03,-35.87811E-09
-9.864521E-03,-135.7170E-09
-14.86006E-03,-283.1861E-09
-19.84447E-03,-449.5355E-09
-24.78031E-03,-623.3034E-09
-29.81116E-03,-790.6391E-09
-34.83769E-03,-952.5534E-09
-39.83036E-03,-998.2242E-09
-44.84709E-03,-1.152883E-06
-49.85362E-03,-1.193179E-06
-54.83729E-03,-1.338294E-06
-59.76925E-03,-1.428923E-06
-64.79858E-03,-1.563832E-06
-69.79147E-03,-1.660952E-06
-74.78559E-03,-1.727158E-06
-79.81747E-03,-1.849920E-06
-84.79832E-03,-1.892514E-06
-89.81933E-03,-1.904859E-06
-94.79215E-03,-1.969950E-06
-99.79045E-03,-2.027114E-06
-104.7987E-03,-2.089955E-06
-109.7845E-03,-2.163481E-06
-114.7680E-03,-2.180820E-06
-119.8020E-03,-2.245097E-06
-124.7508E-03,-2.278652E-06
-129.7528E-03,-2.327655E-06
-134.7284E-03,-2.389175E-06
-139.7274E-03,-2.364641E-06
-144.6989E-03,-2.342680E-06
-149.6986E-03,-2.374630E-06
-154.7103E-03,-2.429523E-06
-159.7133E-03,-2.443257E-06
-164.7096E-03,-2.450784E-06
-169.6963E-03,-2.436174E-06
-174.7058E-03,-2.480828E-06
-179.7065E-03,-2.464396E-06
-184.6874E-03,-2.511262E-06
-189.6837E-03,-2.487123E-06
-194.6612E-03,-2.554052E-06
-199.6366E-03,-2.569610E-06
-204.7083E-03,-2.523334E-06
-209.6534E-03,-2.564682E-06
-214.6228E-03,-2.568154E-06
-219.6476E-03,-2.537493E-06
-224.6301E-03,-2.553188E-06
-229.5785E-03,-2.607266E-06
-234.6355E-03,-2.567130E-06
-239.5456E-03,-2.553529E-06
-244.6393E-03,-2.565514E-06
-249.6804E-03,-2.604916E-06
-254.6137E-03,-2.535650E-06
-259.5639E-03,-2.568379E-06
-264.5778E-03,-2.608914E-06
-269.5688E-03,-2.586184E-06
-274.5544E-03,-2.573041E-06
-279.5773E-03,-2.575185E-06
-284.5699E-03,-2.608837E-06
-289.5632E-03,-2.617693E-06
-294.5589E-03,-2.622000E-06
-299.5280E-03,-2.595674E-06
-304.5334E-03,-2.599004E-06
-309.5518E-03,-2.592901E-06
-314.5322E-03,-2.615573E-06
-319.5700E-03,-2.597727E-06
-324.4960E-03,-2.620582E-06
-329.5140E-03,-2.642367E-06
-334.4895E-03,-2.595534E-06
-339.4697E-03,-2.607861E-06
-344.4416E-03,-2.613158E-06
-349.4697E-03,-2.594293E-06
-354.4757E-03,-2.604916E-06
-359.4703E-03,-2.600675E-06
-364.4632E-03,-2.608661E-06
-369.4390E-03,-2.629012E-06
-374.4458E-03,-2.609729E-06
-379.4524E-03,-2.619030E-06
-384.4471E-03,-2.610890E-06
-389.4281E-03,-2.620450E-06
-394.4178E-03,-2.618022E-06
-399.3954E-03,-2.618729E-06
-404.4844E-03,-2.618463E-06
-409.3902E-03,-2.635895E-06
-414.3566E-03,-2.603019E-06
-419.3708E-03,-2.607070E-06
-424.3844E-03,-2.619974E-06
-429.3959E-03,-2.616235E-06
-434.3982E-03,-2.627052E-06
-439.3733E-03,-2.599668E-06
-444.1216E-03,-2.615921E-06
-449.5343E-03,-2.632041E-06
-454.3298E-03,-2.618479E-06
-458.9211E-03,-2.606091E-06
-464.2000E-03,-2.609458E-06
-469.7824E-03,-2.611276E-06
-474.2448E-03,-2.624615E-06
-479.1811E-03,-2.615243E-06
-484.3188E-03,-2.604491E-06
-489.4264E-03,-2.629550E-06
-493.7689E-03,-2.603713E-06
-499.4717E-03,-2.605417E-06

-499.4760E-03,-2.611724E-06
-494.7996E-03,-2.606299E-06
-489.7825E-03,-2.604351E-06
-484.8052E-03,-2.604060E-06
-479.8642E-03,-2.606408E-06
-474.8947E-03,-2.610647E-06
-469.8644E-03,-2.613378E-06
-464.8663E-03,-2.613017E-06
-459.8538E-03,-2.609208E-06
-454.8556E-03,-2.613228E-06
-449.8790E-03,-2.614020E-06
-444.8569E-03,-2.614951E-06
-439.8629E-03,-2.616920E-06
-434.7914E-03,-2.615055E-06
-429.8564E-03,-2.612005E-06
-424.8641E-03,-2.620956E-06
-419.8610E-03,-2.618604E-06
-414.8613E-03,-2.617575E-06
-409.9048E-03,-2.619583E-06
-404.8522E-03,-2.616132E-06
-399.9134E-03,-2.616287E-06
-394.8596E-03,-2.619930E-06
-389.8730E-03,-2.612907E-06
-384.8530E-03,-2.628740E-06
-379.8501E-03,-2.620609E-06
-374.8658E-03,-2.618006E-06
-369.8562E-03,-2.614774E-06
-364.8688E-03,-2.618207E-06
-359.8639E-03,-2.610802E-06
-354.8645E-03,-2.615327E-06
-349.8395E-03,-2.600028E-06
-344.8640E-03,-2.616169E-06
-339.8697E-03,-2.613532E-06
-334.8491E-03,-2.612512E-06
-329.8877E-03,-2.616237E-06
-324.9507E-03,-2.610817E-06
-319.9082E-03,-2.596688E-06
-314.9039E-03,-2.616727E-06
-309.8940E-03,-2.607238E-06
-304.9046E-03,-2.611626E-06
-299.9100E-03,-2.609043E-06
-294.8988E-03,-2.601538E-06
-289.8888E-03,-2.587685E-06
-284.9118E-03,-2.601046E-06
-279.9184E-03,-2.598790E-06
-274.9382E-03,-2.595369E-06
-269.9260E-03,-2.592663E-06
-264.9002E-03,-2.597905E-06
-259.9317E-03,-2.584425E-06
-254.9582E-03,-2.580844E-06
-249.9515E-03,-2.573394E-06
-244.9049E-03,-2.587158E-06
-239.9636E-03,-2.554545E-06
-234.9115E-03,-2.575728E-06
-229.9749E-03,-2.571763E-06
-224.9881E-03,-2.565104E-06
-219.9882E-03,-2.551897E-06
-214.9719E-03,-2.543645E-06
-210.0021E-03,-2.573415E-06
-204.9713E-03,-2.564641E-06
-199.9894E-03,-2.532235E-06
-194.9511E-03,-2.527647E-06
-190.0025E-03,-2.498838E-06
-184.9991E-03,-2.493077E-06
-179.9862E-03,-2.527758E-06
-175.0276E-03,-2.510453E-06
-170.0118E-03,-2.494520E-06
-165.0219E-03,-2.471901E-06
-160.0356E-03,-2.442002E-06
-155.0155E-03,-2.414376E-06
-149.9826E-03,-2.381390E-06
-145.0260E-03,-2.388917E-06
-140.0197E-03,-2.352691E-06
-135.0416E-03,-2.329594E-06
-130.0437E-03,-2.316937E-06
-125.0859E-03,-2.283856E-06
-120.0411E-03,-2.259578E-06
-115.0774E-03,-2.186224E-06
-110.0944E-03,-2.170407E-06
-105.0003E-03,-2.130912E-06
-100.0792E-03,-2.073738E-06
-95.05603E-03,-2.061366E-06
-90.07405E-03,-1.999747E-06
-85.41863E-03,-1.898666E-06
-80.03354E-03,-1.855829E-06
-75.15839E-03,-1.784804E-06
-70.10260E-03,-1.708616E-06
-65.13523E-03,-1.582071E-06
-60.06440E-03,-1.521472E-06
-55.11292E-03,-1.391050E-06
-50.12735E-03,-1.316347E-06
-45.13298E-03,-1.229981E-06
-40.11595E-03,-1.144061E-06
-35.18645E-03,-1.033515E-06
-30.14583E-03,-869.1620E-09
-25.15549E-03,-756.2355E-09
-20.15956E-03,-658.0015E-09
-15.16585E-03,-537.9904E-09
-10.16684E-03,-414.9306E-09
-5.130804E-03,-315.2516E-09
-205.7201E-06,-128.8081E-09
+4.798376E-03,+5.681491E-09
+9.776241E-03,+139.5431E-09
+14.76620E-03,+320.3662E-09
+19.71922E-03,+453.7334E-09
+24.73506E-03,+614.0598E-09
+29.75040E-03,+783.2188E-09
+34.74393E-03,+925.6004E-09
+39.74374E-03,+975.0257E-09
+44.74615E-03,+1.124751E-06
+49.68728E-03,+1.264398E-06
+54.72159E-03,+1.398372E-06
+59.71377E-03,+1.454157E-06
+64.71395E-03,+1.567018E-06
+69.71598E-03,+1.677241E-06
+74.67872E-03,+1.742483E-06
+79.73414E-03,+1.766923E-06
+84.69090E-03,+1.896952E-06
+89.67419E-03,+1.934782E-06
+94.68280E-03,+2.012844E-06
+99.63606E-03,+2.052642E-06
+104.6369E-03,+2.128936E-06
+109.6853E-03,+2.164074E-06
+114.6473E-03,+2.201011E-06
+119.6497E-03,+2.172852E-06
+124.6492E-03,+2.256288E-06
+129.6434E-03,+2.315213E-06
+134.6108E-03,+2.335475E-06
+139.6254E-03,+2.370904E-06
+144.6057E-03,+2.388704E-06
+149.5675E-03,+2.420186E-06
+154.6089E-03,+2.459906E-06
+159.5957E-03,+2.428188E-06
+164.6317E-03,+2.467158E-06
+169.5796E-03,+2.467347E-06
+174.5690E-03,+2.520100E-06
+179.5791E-03,+2.492314E-06
+184.5618E-03,+2.543407E-06
+189.5088E-03,+2.538064E-06
+194.5707E-03,+2.544161E-06
+199.5355E-03,+2.551493E-06
+204.5656E-03,+2.517420E-06
+209.5605E-03,+2.579959E-06
+214.5154E-03,+2.568705E-06
+219.5026E-03,+2.592678E-06
+224.5027E-03,+2.572265E-06
+229.5312E-03,+2.544695E-06
+234.5026E-03,+2.590768E-06
+239.4972E-03,+2.599144E-06
+244.4898E-03,+2.601739E-06
+249.5297E-03,+2.580548E-06
+254.4847E-03,+2.599101E-06
+259.4785E-03,+2.609264E-06
+264.4663E-03,+2.573050E-06
+269.4668E-03,+2.585531E-06
+274.3860E-03,+2.578118E-06
+279.4790E-03,+2.608847E-06
+284.4451E-03,+2.622764E-06
+289.4431E-03,+2.624894E-06
+294.4328E-03,+2.584099E-06
+299.4235E-03,+2.610908E-06
+304.4028E-03,+2.592143E-06
+309.4041E-03,+2.624745E-06
+314.4008E-03,+2.637337E-06
+319.3934E-03,+2.614779E-06
+324.3868E-03,+2.614205E-06
+329.3867E-03,+2.620550E-06
+334.4231E-03,+2.617217E-06
+339.3668E-03,+2.598168E-06
+344.3724E-03,+2.606038E-06
+349.3563E-03,+2.623314E-06
+354.3326E-03,+2.631265E-06
+359.3102E-03,+2.626110E-06
+364.3410E-03,+2.620008E-06
+369.3287E-03,+2.615514E-06
+374.3141E-03,+2.610842E-06
+379.3019E-03,+2.649301E-06
+384.3208E-03,+2.628625E-06
+389.2756E-03,+2.614500E-06
+394.2877E-03,+2.618463E-06
+399.2746E-03,+2.614265E-06
+404.2666E-03,+2.597651E-06
+409.2001E-03,+2.625880E-06
+414.2705E-03,+2.602075E-06
+419.3358E-03,+2.624365E-06
+424.2446E-03,+2.615420E-06
+429.2300E-03,+2.626185E-06
+434.2366E-03,+2.625024E-06
+439.2213E-03,+2.629627E-06
+444.2210E-03,+2.622841E-06
+449.2370E-03,+2.618685E-06
+454.1708E-03,+2.604078E-06
+459.1946E-03,+2.604318E-06
+464.1852E-03,+2.614440E-06
+469.1670E-03,+2.626588E-06
+474.1125E-03,+2.614762E-06
+479.1525E-03,+2.604098E-06
+484.1628E-03,+2.615959E-06
+489.1389E-03,+2.623243E-06
+494.1410E-03,+2.617237E-06
+499.3570E-03,+2.611899E-06

MicroMag 2900/3900 Data File ends
