MicroMag 2900/3900 Data File (Series 0016.002)
Direct moment vs. field; Hysteresis loop

INSTRUMENT
Configuration                   VSM
Temperature control             None
Hardware version                0004
Software version                06/08/2012
Units of measure                Hybrid SI
Temperature in                  Kelvin

SAMPLE
Mass                            N/A
Volume                          N/A
Demagnetizing factor            N/A

SETTINGS
Field range                    +1.000000E+00
Field (command)                 N/A
Moment range                   +5.000000E-06
Averaging time                 +200.0000E-03
Temperature (command)           N/A
Tmprtr difference correction    No
Orientation                     0.000000E+00
Vibration amplitude             1.0
Calibration factor             +3.570920E+00
Operating frequency            +83.00000E+00
Sweep mode                      Discrete
Pause after sweep increment    +300.0000E-03

MEASUREMENT
Description                    "DQ15-33B1"
Field (measured)                N/A
Temperature (measured)          N/A
Averages (completed)            1
Measured on                     10/29/2016  16:28
Elapsed time                   +207.0310E+00

PROCESSING
Background subtraction          No
Delta-m processing              N/A
Demagnetizing factor            No
Normalization                   No
Normalization factor            N/A
Offset (field)                  No
Offset (moment)                 No
Pole saturation                 No
Slope correction                No

VIEWPORT
Left                           -500.0000E-03
Right                          +500.0000E-03
Bottom                         -5.000000E-06
Top                            +5.000000E-06
Show X-axis?                    Yes
Show Y-axis?                    Yes

CHARACTERIZATION
Initial slope                   N/A
Saturation                     +2.641551E-06
Remanence                      +132.1303E-09
Coercivity                     +4.205366E-03
S*                             +63.71258E-06

SCRIPT
Averages (target)               1
Averaging time                 +200.0000E-03
Demagnetize?                    No
Maximum field                  +500.0000E-03
Field increment                +5.000000E-03
Hysteresis loop?                Yes
Initial magnetization?          No
Pause                          +1.000000E+00
Saturate before measuring?      No
Number of segments              2
Number of data                  402

Segment   Averaging      Initial        Field         Final                    Final 
 Number      Time         Field       Increment       Field         Pause      Index 
             (s)           (T)           (T)           (T)           (s)     
0000001,+200.0000E-03,+500.0000E-03,+5.000000E-03,-500.0000E-03,+1.000000E+00,0000201
0000002,+200.0000E-03,-500.0000E-03,+5.000000E-03,+500.0000E-03,+1.000000E+00,0000402

                           
    Field         Moment   
     (T)          (Am²)    
+499.3542E-03,+2.644905E-06
+494.5630E-03,+2.640695E-06
+489.4663E-03,+2.643407E-06
+484.5442E-03,+2.644920E-06
+479.4066E-03,+2.646967E-06
+474.4830E-03,+2.648126E-06
+469.5819E-03,+2.647334E-06
+464.4545E-03,+2.647996E-06
+459.5366E-03,+2.648051E-06
+454.3957E-03,+2.648203E-06
+449.4874E-03,+2.650006E-06
+444.6042E-03,+2.649549E-06
+439.4577E-03,+2.648913E-06
+434.5458E-03,+2.651576E-06
+429.6391E-03,+2.653813E-06
+424.5050E-03,+2.652886E-06
+419.6032E-03,+2.656034E-06
+414.4662E-03,+2.656419E-06
+409.5596E-03,+2.650335E-06
+404.6522E-03,+2.653029E-06
+399.5213E-03,+2.652610E-06
+394.6187E-03,+2.648635E-06
+389.4578E-03,+2.650771E-06
+384.5626E-03,+2.648331E-06
+379.6617E-03,+2.647385E-06
+374.5180E-03,+2.647408E-06
+369.6170E-03,+2.650134E-06
+364.4882E-03,+2.650176E-06
+359.5786E-03,+2.648251E-06
+354.6758E-03,+2.643354E-06
+349.5273E-03,+2.647397E-06
+344.6195E-03,+2.645338E-06
+339.7143E-03,+2.646473E-06
+334.5888E-03,+2.645296E-06
+329.6919E-03,+2.644945E-06
+324.5505E-03,+2.645740E-06
+319.6450E-03,+2.648969E-06
+314.7475E-03,+2.642719E-06
+309.5966E-03,+2.646848E-06
+304.7008E-03,+2.646165E-06
+299.5668E-03,+2.639097E-06
+294.6570E-03,+2.638686E-06
+289.7707E-03,+2.639601E-06
+284.6341E-03,+2.632618E-06
+279.7069E-03,+2.630792E-06
+274.5761E-03,+2.629594E-06
+269.6666E-03,+2.629944E-06
+264.7690E-03,+2.625975E-06
+259.6314E-03,+2.627446E-06
+254.7319E-03,+2.621342E-06
+249.8278E-03,+2.617366E-06
+244.6993E-03,+2.611369E-06
+239.7838E-03,+2.608858E-06
+234.6448E-03,+2.601529E-06
+229.7531E-03,+2.605975E-06
+224.8466E-03,+2.595758E-06
+219.6971E-03,+2.594079E-06
+214.7995E-03,+2.593515E-06
+209.6566E-03,+2.582571E-06
+204.7598E-03,+2.575137E-06
+199.8579E-03,+2.567393E-06
+194.7230E-03,+2.559487E-06
+189.8198E-03,+2.549218E-06
+184.6717E-03,+2.541623E-06
+179.7809E-03,+2.535007E-06
+174.8769E-03,+2.519347E-06
+169.7263E-03,+2.504025E-06
+164.8391E-03,+2.499177E-06
+159.7001E-03,+2.479175E-06
+154.7878E-03,+2.459459E-06
+149.8794E-03,+2.443877E-06
+144.7407E-03,+2.416752E-06
+139.8489E-03,+2.397032E-06
+134.9417E-03,+2.373223E-06
+129.8096E-03,+2.347013E-06
+124.9001E-03,+2.313549E-06
+119.7645E-03,+2.273673E-06
+114.8683E-03,+2.237749E-06
+109.9588E-03,+2.192466E-06
+104.8170E-03,+2.150251E-06
+99.92782E-03,+2.111232E-06
+94.77666E-03,+2.060029E-06
+89.87597E-03,+1.994471E-06
+84.98809E-03,+1.933548E-06
+79.84564E-03,+1.874433E-06
+74.92650E-03,+1.792684E-06
+69.79284E-03,+1.711539E-06
+64.89329E-03,+1.635231E-06
+59.99881E-03,+1.551304E-06
+54.84483E-03,+1.460268E-06
+49.94856E-03,+1.356793E-06
+45.04827E-03,+1.265859E-06
+39.91104E-03,+1.150276E-06
+35.01873E-03,+1.044180E-06
+29.85230E-03,+939.9727E-09
+24.96250E-03,+805.7708E-09
+20.05995E-03,+683.3053E-09
+14.91070E-03,+548.8520E-09
+10.03855E-03,+417.1821E-09
+4.901282E-03,+272.2694E-09
-5.666996E-06,+134.2423E-09
-4.884568E-03,-17.73892E-09
-10.01106E-03,-157.6219E-09
-14.91681E-03,-321.6481E-09
-20.07263E-03,-477.1168E-09
-24.95977E-03,-604.7478E-09
-29.86476E-03,-755.9576E-09
-35.03222E-03,-904.3772E-09
-39.91390E-03,-1.023113E-06
-45.04637E-03,-1.142588E-06
-49.94883E-03,-1.263506E-06
-54.84901E-03,-1.380317E-06
-59.98690E-03,-1.477086E-06
-64.89214E-03,-1.574553E-06
-69.79417E-03,-1.662512E-06
-74.91717E-03,-1.740231E-06
-79.84202E-03,-1.825448E-06
-84.97564E-03,-1.888287E-06
-89.86315E-03,-1.958884E-06
-94.77789E-03,-2.016112E-06
-99.91623E-03,-2.080360E-06
-104.8204E-03,-2.129074E-06
-109.9625E-03,-2.177552E-06
-114.8629E-03,-2.212940E-06
-119.7635E-03,-2.258253E-06
-124.8992E-03,-2.297851E-06
-129.8094E-03,-2.327676E-06
-134.9370E-03,-2.363229E-06
-139.8380E-03,-2.382321E-06
-144.7345E-03,-2.418434E-06
-149.8764E-03,-2.428972E-06
-154.7730E-03,-2.457441E-06
-159.6842E-03,-2.470783E-06
-164.8234E-03,-2.492073E-06
-169.7261E-03,-2.497798E-06
-174.8761E-03,-2.510561E-06
-179.7733E-03,-2.541138E-06
-184.6730E-03,-2.544060E-06
-189.8149E-03,-2.541272E-06
-194.6979E-03,-2.559168E-06
-199.8345E-03,-2.577178E-06
-204.7597E-03,-2.563392E-06
-209.6419E-03,-2.579701E-06
-214.7740E-03,-2.584667E-06
-219.6899E-03,-2.586488E-06
-224.8297E-03,-2.600448E-06
-229.7157E-03,-2.600169E-06
-234.6349E-03,-2.597296E-06
-239.7825E-03,-2.606807E-06
-244.6689E-03,-2.609210E-06
-249.8117E-03,-2.613220E-06
-254.7162E-03,-2.617106E-06
-259.6140E-03,-2.618733E-06
-264.7557E-03,-2.619004E-06
-269.6503E-03,-2.629898E-06
-274.5470E-03,-2.626402E-06
-279.6896E-03,-2.627736E-06
-284.5962E-03,-2.629556E-06
-289.7434E-03,-2.628949E-06
-294.6305E-03,-2.630168E-06
-299.5397E-03,-2.638096E-06
-304.6815E-03,-2.632953E-06
-309.5760E-03,-2.641446E-06
-314.7311E-03,-2.633024E-06
-319.6196E-03,-2.631582E-06
-324.5106E-03,-2.642881E-06
-329.6623E-03,-2.643395E-06
-334.5731E-03,-2.636521E-06
-339.6920E-03,-2.639642E-06
-344.5951E-03,-2.639809E-06
-349.5073E-03,-2.641707E-06
-354.6436E-03,-2.644420E-06
-359.5465E-03,-2.645427E-06
-364.4449E-03,-2.646743E-06
-369.5790E-03,-2.648427E-06
-374.4778E-03,-2.646384E-06
-379.6240E-03,-2.648847E-06
-384.5239E-03,-2.646562E-06
-389.4234E-03,-2.644944E-06
-394.5756E-03,-2.641438E-06
-399.4704E-03,-2.643423E-06
-404.5979E-03,-2.648672E-06
-409.5138E-03,-2.644317E-06
-414.4090E-03,-2.641905E-06
-419.5386E-03,-2.645251E-06
-424.4398E-03,-2.648429E-06
-429.5774E-03,-2.641701E-06
-434.4792E-03,-2.648174E-06
-439.3854E-03,-2.644223E-06
-444.5362E-03,-2.642942E-06
-449.4160E-03,-2.649876E-06
-454.3170E-03,-2.648827E-06
-459.4635E-03,-2.648758E-06
-464.3588E-03,-2.643813E-06
-469.5047E-03,-2.647433E-06
-474.4204E-03,-2.644546E-06
-479.3104E-03,-2.644915E-06
-484.4426E-03,-2.643044E-06
-489.3563E-03,-2.642870E-06
-494.4910E-03,-2.639061E-06
-499.4546E-03,-2.640198E-06

-499.4547E-03,-2.639677E-06
-494.6892E-03,-2.642960E-06
-489.5815E-03,-2.638690E-06
-484.6641E-03,-2.640935E-06
-479.5274E-03,-2.644119E-06
-474.6231E-03,-2.644773E-06
-469.7013E-03,-2.641946E-06
-464.5635E-03,-2.638190E-06
-459.6568E-03,-2.647837E-06
-454.5100E-03,-2.643185E-06
-449.6016E-03,-2.644742E-06
-444.7056E-03,-2.648008E-06
-439.5667E-03,-2.648247E-06
-434.6491E-03,-2.642536E-06
-429.7572E-03,-2.644843E-06
-424.6158E-03,-2.644068E-06
-419.7009E-03,-2.645233E-06
-414.5756E-03,-2.648339E-06
-409.6749E-03,-2.646844E-06
-404.7604E-03,-2.647763E-06
-399.6214E-03,-2.648608E-06
-394.7378E-03,-2.646687E-06
-389.5824E-03,-2.643589E-06
-384.6751E-03,-2.649281E-06
-379.7794E-03,-2.647941E-06
-374.6227E-03,-2.645197E-06
-369.7266E-03,-2.649765E-06
-364.5962E-03,-2.647639E-06
-359.6940E-03,-2.645380E-06
-354.7870E-03,-2.644673E-06
-349.6396E-03,-2.645233E-06
-344.7417E-03,-2.644085E-06
-339.8342E-03,-2.644609E-06
-334.7073E-03,-2.643060E-06
-329.7957E-03,-2.635513E-06
-324.6412E-03,-2.641749E-06
-319.7565E-03,-2.644426E-06
-314.8604E-03,-2.638148E-06
-309.7263E-03,-2.639264E-06
-304.8059E-03,-2.636099E-06
-299.6736E-03,-2.633561E-06
-294.7585E-03,-2.634914E-06
-289.8675E-03,-2.632845E-06
-284.7402E-03,-2.630796E-06
-279.8149E-03,-2.629008E-06
-274.6729E-03,-2.629079E-06
-269.7823E-03,-2.623284E-06
-264.8724E-03,-2.622119E-06
-259.7373E-03,-2.616568E-06
-254.8399E-03,-2.613882E-06
-249.9239E-03,-2.615234E-06
-244.8015E-03,-2.612789E-06
-239.9073E-03,-2.607009E-06
-234.7564E-03,-2.602321E-06
-229.8468E-03,-2.594393E-06
-224.9611E-03,-2.594976E-06
-219.8147E-03,-2.591147E-06
-214.9039E-03,-2.585869E-06
-209.7661E-03,-2.579281E-06
-204.8803E-03,-2.572355E-06
-199.9600E-03,-2.563561E-06
-194.8236E-03,-2.550463E-06
-189.9311E-03,-2.546070E-06
-184.7864E-03,-2.534770E-06
-179.8866E-03,-2.526782E-06
-174.9928E-03,-2.518862E-06
-169.8352E-03,-2.503579E-06
-164.9384E-03,-2.489669E-06
-159.8025E-03,-2.470071E-06
-154.8875E-03,-2.458600E-06
-149.9881E-03,-2.438288E-06
-144.8498E-03,-2.413548E-06
-139.9447E-03,-2.393010E-06
-135.0476E-03,-2.363418E-06
-129.9146E-03,-2.337946E-06
-124.9950E-03,-2.306162E-06
-119.8618E-03,-2.278541E-06
-114.9712E-03,-2.229755E-06
-110.0794E-03,-2.189599E-06
-104.9363E-03,-2.147427E-06
-100.0288E-03,-2.100232E-06
-94.88200E-03,-2.046184E-06
-89.96850E-03,-1.981804E-06
-85.08047E-03,-1.926688E-06
-79.95124E-03,-1.854418E-06
-75.02692E-03,-1.783731E-06
-69.90746E-03,-1.707385E-06
-65.00297E-03,-1.628004E-06
-60.10332E-03,-1.545886E-06
-54.95532E-03,-1.450482E-06
-50.04974E-03,-1.359752E-06
-45.15782E-03,-1.255855E-06
-40.02029E-03,-1.152604E-06
-35.12430E-03,-1.038844E-06
-29.96396E-03,-920.8457E-09
-25.06456E-03,-794.6215E-09
-20.17236E-03,-673.3753E-09
-15.01897E-03,-556.2316E-09
-10.11657E-03,-406.2412E-09
-4.991386E-03,-276.9205E-09
-107.0457E-06,-133.2531E-09
+4.793464E-03,+22.12647E-09
+9.925971E-03,+190.8524E-09
+14.80747E-03,+329.1491E-09
+19.95217E-03,+481.6192E-09
+24.85830E-03,+637.1999E-09
+29.74792E-03,+765.8858E-09
+34.91513E-03,+913.2593E-09
+39.80254E-03,+1.023886E-06
+44.93008E-03,+1.161062E-06
+49.83957E-03,+1.269284E-06
+54.73976E-03,+1.374104E-06
+59.88142E-03,+1.471817E-06
+64.77714E-03,+1.573988E-06
+69.69675E-03,+1.667141E-06
+74.81742E-03,+1.752564E-06
+79.73944E-03,+1.835030E-06
+84.87795E-03,+1.902285E-06
+89.77254E-03,+1.974431E-06
+94.67764E-03,+2.031741E-06
+99.80965E-03,+2.083321E-06
+104.7090E-03,+2.141231E-06
+109.8539E-03,+2.198066E-06
+114.7504E-03,+2.230036E-06
+119.6363E-03,+2.263380E-06
+124.7985E-03,+2.286677E-06
+129.6966E-03,+2.341086E-06
+134.8245E-03,+2.363496E-06
+139.7313E-03,+2.397289E-06
+144.6222E-03,+2.396979E-06
+149.7668E-03,+2.449768E-06
+154.6684E-03,+2.455768E-06
+159.5861E-03,+2.484508E-06
+164.7173E-03,+2.498769E-06
+169.6164E-03,+2.503711E-06
+174.7637E-03,+2.526830E-06
+179.6735E-03,+2.533479E-06
+184.5485E-03,+2.545171E-06
+189.7045E-03,+2.559549E-06
+194.6134E-03,+2.559617E-06
+199.7341E-03,+2.560633E-06
+204.6414E-03,+2.587850E-06
+209.5478E-03,+2.581289E-06
+214.6783E-03,+2.583989E-06
+219.5818E-03,+2.591494E-06
+224.7289E-03,+2.599400E-06
+229.6278E-03,+2.611734E-06
+234.5171E-03,+2.612599E-06
+239.6668E-03,+2.612526E-06
+244.5729E-03,+2.614410E-06
+249.7040E-03,+2.611600E-06
+254.6124E-03,+2.617006E-06
+259.5018E-03,+2.629707E-06
+264.6446E-03,+2.628337E-06
+269.5453E-03,+2.632268E-06
+274.4502E-03,+2.626889E-06
+279.5759E-03,+2.635972E-06
+284.5094E-03,+2.638086E-06
+289.6498E-03,+2.642897E-06
+294.5273E-03,+2.643179E-06
+299.4313E-03,+2.636658E-06
+304.5752E-03,+2.642512E-06
+309.4625E-03,+2.636046E-06
+314.6091E-03,+2.649547E-06
+319.5052E-03,+2.644347E-06
+324.4094E-03,+2.648794E-06
+329.5603E-03,+2.642147E-06
+334.4426E-03,+2.642135E-06
+339.5852E-03,+2.647483E-06
+344.4917E-03,+2.646117E-06
+349.3889E-03,+2.648108E-06
+354.5271E-03,+2.651836E-06
+359.4297E-03,+2.653343E-06
+364.3374E-03,+2.653542E-06
+369.4633E-03,+2.652303E-06
+374.3650E-03,+2.648232E-06
+379.5097E-03,+2.654318E-06
+384.4140E-03,+2.646505E-06
+389.2994E-03,+2.652546E-06
+394.4470E-03,+2.654554E-06
+399.3509E-03,+2.655735E-06
+404.4860E-03,+2.650881E-06
+409.3973E-03,+2.649025E-06
+414.2958E-03,+2.654285E-06
+419.4278E-03,+2.653904E-06
+424.3281E-03,+2.649824E-06
+429.4652E-03,+2.648497E-06
+434.3673E-03,+2.648658E-06
+439.2788E-03,+2.648316E-06
+444.4126E-03,+2.650234E-06
+449.3022E-03,+2.652799E-06
+454.2081E-03,+2.649326E-06
+459.3435E-03,+2.648054E-06
+464.2482E-03,+2.649706E-06
+469.3669E-03,+2.648122E-06
+474.2798E-03,+2.645077E-06
+479.1851E-03,+2.643134E-06
+484.3106E-03,+2.649047E-06
+489.2361E-03,+2.647565E-06
+494.3616E-03,+2.641978E-06
+499.3443E-03,+2.643816E-06

MicroMag 2900/3900 Data File ends
