MicroMag 2900/3900 Data File (Series 0016.002)
Direct moment vs. field; Hysteresis loop

INSTRUMENT
Configuration                   VSM
Temperature control             None
Hardware version                0004
Software version                06/08/2012
Units of measure                Hybrid SI
Temperature in                  Kelvin

SAMPLE
Mass                            N/A
Volume                          N/A
Demagnetizing factor            N/A

SETTINGS
Field range                    +1.000000E+00
Field (command)                 N/A
Moment range                   +5.000000E-06
Averaging time                 +200.0000E-03
Temperature (command)           N/A
Tmprtr difference correction    No
Orientation                     0.000000E+00
Vibration amplitude             1.0
Calibration factor             +3.570920E+00
Operating frequency            +83.00000E+00
Sweep mode                      Discrete
Pause after sweep increment    +300.0000E-03

MEASUREMENT
Description                    "DQ15-33B1"
Field (measured)                N/A
Temperature (measured)          N/A
Averages (completed)            1
Measured on                     10/29/2016  16:01
Elapsed time                   +206.9547E+00

PROCESSING
Background subtraction          No
Delta-m processing              N/A
Demagnetizing factor            No
Normalization                   No
Normalization factor            N/A
Offset (field)                  No
Offset (moment)                 No
Pole saturation                 No
Slope correction                No

VIEWPORT
Left                           -500.0000E-03
Right                          +500.0000E-03
Bottom                         -5.000000E-06
Top                            +5.000000E-06
Show X-axis?                    Yes
Show Y-axis?                    Yes

CHARACTERIZATION
Initial slope                   N/A
Saturation                     +2.634654E-06
Remanence                      +125.2657E-09
Coercivity                     +4.340794E-03
S*                             +7.645649E-03

SCRIPT
Averages (target)               1
Averaging time                 +200.0000E-03
Demagnetize?                    No
Maximum field                  +500.0000E-03
Field increment                +5.000000E-03
Hysteresis loop?                Yes
Initial magnetization?          No
Pause                          +1.000000E+00
Saturate before measuring?      No
Number of segments              2
Number of data                  402

Segment   Averaging      Initial        Field         Final                    Final 
 Number      Time         Field       Increment       Field         Pause      Index 
             (s)           (T)           (T)           (T)           (s)     
0000001,+200.0000E-03,+500.0000E-03,+5.000000E-03,-500.0000E-03,+1.000000E+00,0000201
0000002,+200.0000E-03,-500.0000E-03,+5.000000E-03,+500.0000E-03,+1.000000E+00,0000402

                           
    Field         Moment   
     (T)          (Am²)    
+499.3506E-03,+2.635366E-06
+494.5741E-03,+2.637135E-06
+489.4789E-03,+2.637923E-06
+484.5569E-03,+2.639064E-06
+479.4149E-03,+2.640083E-06
+474.5027E-03,+2.642458E-06
+469.5914E-03,+2.638775E-06
+464.4523E-03,+2.639797E-06
+459.5402E-03,+2.642773E-06
+454.4106E-03,+2.641460E-06
+449.4929E-03,+2.645666E-06
+444.6019E-03,+2.642271E-06
+439.4467E-03,+2.642450E-06
+434.5596E-03,+2.640587E-06
+429.6411E-03,+2.639125E-06
+424.5025E-03,+2.642270E-06
+419.6005E-03,+2.643282E-06
+414.4754E-03,+2.641051E-06
+409.5626E-03,+2.644119E-06
+404.6547E-03,+2.641586E-06
+399.5218E-03,+2.643727E-06
+394.6117E-03,+2.642979E-06
+389.4558E-03,+2.646040E-06
+384.5743E-03,+2.644759E-06
+379.6723E-03,+2.641147E-06
+374.5255E-03,+2.640860E-06
+369.6234E-03,+2.644823E-06
+364.4833E-03,+2.640654E-06
+359.5779E-03,+2.649092E-06
+354.6728E-03,+2.640474E-06
+349.5334E-03,+2.639257E-06
+344.6309E-03,+2.642063E-06
+339.7329E-03,+2.638793E-06
+334.5994E-03,+2.638250E-06
+329.6909E-03,+2.636767E-06
+324.5553E-03,+2.639647E-06
+319.6598E-03,+2.640397E-06
+314.7455E-03,+2.637592E-06
+309.6018E-03,+2.635256E-06
+304.7123E-03,+2.633663E-06
+299.5746E-03,+2.631605E-06
+294.6653E-03,+2.629850E-06
+289.7723E-03,+2.629178E-06
+284.6413E-03,+2.623582E-06
+279.7096E-03,+2.626513E-06
+274.5720E-03,+2.629308E-06
+269.6759E-03,+2.616148E-06
+264.7757E-03,+2.617301E-06
+259.6378E-03,+2.620117E-06
+254.7344E-03,+2.617308E-06
+249.8378E-03,+2.614408E-06
+244.6983E-03,+2.611156E-06
+239.7980E-03,+2.599757E-06
+234.6456E-03,+2.603516E-06
+229.7509E-03,+2.592933E-06
+224.8572E-03,+2.586006E-06
+219.7157E-03,+2.588127E-06
+214.8011E-03,+2.582213E-06
+209.6620E-03,+2.578315E-06
+204.7616E-03,+2.573709E-06
+199.8563E-03,+2.566812E-06
+194.7257E-03,+2.559907E-06
+189.8253E-03,+2.547998E-06
+184.6772E-03,+2.537201E-06
+179.7850E-03,+2.526290E-06
+174.8844E-03,+2.515769E-06
+169.7204E-03,+2.507551E-06
+164.8353E-03,+2.493454E-06
+159.6987E-03,+2.474111E-06
+154.7863E-03,+2.453241E-06
+149.8847E-03,+2.437820E-06
+144.7476E-03,+2.418405E-06
+139.8404E-03,+2.393993E-06
+134.9470E-03,+2.369053E-06
+129.8069E-03,+2.339083E-06
+124.9174E-03,+2.306289E-06
+119.7603E-03,+2.271466E-06
+114.8618E-03,+2.237418E-06
+109.9610E-03,+2.192573E-06
+104.8124E-03,+2.147232E-06
+99.92202E-03,+2.101972E-06
+94.78619E-03,+2.047580E-06
+89.87422E-03,+1.994887E-06
+84.98926E-03,+1.932598E-06
+79.85483E-03,+1.858514E-06
+74.92598E-03,+1.789167E-06
+69.80058E-03,+1.705616E-06
+64.89324E-03,+1.637439E-06
+60.00138E-03,+1.552456E-06
+54.84960E-03,+1.452763E-06
+49.93777E-03,+1.356886E-06
+45.04130E-03,+1.261002E-06
+39.91756E-03,+1.154144E-06
+35.02074E-03,+1.040473E-06
+29.85856E-03,+925.8922E-09
+24.96678E-03,+815.9476E-09
+20.05775E-03,+692.3551E-09
+14.91748E-03,+547.6035E-09
+10.03220E-03,+417.7738E-09
+4.893432E-03,+284.5879E-09
-10.74334E-06,+129.3265E-09
-4.882612E-03,-7.076478E-09
-10.01810E-03,-171.1391E-09
-14.93048E-03,-324.9598E-09
-20.06814E-03,-469.1817E-09
-24.96704E-03,-620.0071E-09
-29.86138E-03,-752.9616E-09
-35.01672E-03,-900.0570E-09
-39.90589E-03,-1.029055E-06
-45.05377E-03,-1.153035E-06
-49.94809E-03,-1.256048E-06
-54.86109E-03,-1.367246E-06
-59.99551E-03,-1.473479E-06
-64.89052E-03,-1.571922E-06
-69.79331E-03,-1.647902E-06
-74.92451E-03,-1.740044E-06
-79.84804E-03,-1.814114E-06
-84.98122E-03,-1.894927E-06
-89.86751E-03,-1.962678E-06
-94.78369E-03,-2.013726E-06
-99.91653E-03,-2.071997E-06
-104.8208E-03,-2.127242E-06
-109.9634E-03,-2.172457E-06
-114.8680E-03,-2.224649E-06
-119.7549E-03,-2.256563E-06
-124.8884E-03,-2.291140E-06
-129.7984E-03,-2.322217E-06
-134.9360E-03,-2.355167E-06
-139.8292E-03,-2.392653E-06
-144.7323E-03,-2.404872E-06
-149.8799E-03,-2.422286E-06
-154.7699E-03,-2.447414E-06
-159.6995E-03,-2.477233E-06
-164.8259E-03,-2.476641E-06
-169.7198E-03,-2.500596E-06
-174.8756E-03,-2.507974E-06
-179.7703E-03,-2.522997E-06
-184.6710E-03,-2.531623E-06
-189.8253E-03,-2.541239E-06
-194.7075E-03,-2.548645E-06
-199.8403E-03,-2.553179E-06
-204.7549E-03,-2.563733E-06
-209.6537E-03,-2.571359E-06
-214.7831E-03,-2.585682E-06
-219.6943E-03,-2.582206E-06
-224.8360E-03,-2.589276E-06
-229.7221E-03,-2.593774E-06
-234.6357E-03,-2.589251E-06
-239.7865E-03,-2.603714E-06
-244.6708E-03,-2.602807E-06
-249.8050E-03,-2.608136E-06
-254.7198E-03,-2.614998E-06
-259.6112E-03,-2.620279E-06
-264.7432E-03,-2.618538E-06
-269.6518E-03,-2.621926E-06
-274.5464E-03,-2.614053E-06
-279.6880E-03,-2.622529E-06
-284.6125E-03,-2.618841E-06
-289.7490E-03,-2.631575E-06
-294.6250E-03,-2.622296E-06
-299.5494E-03,-2.623447E-06
-304.6805E-03,-2.625005E-06
-309.5672E-03,-2.631171E-06
-314.7247E-03,-2.627473E-06
-319.6268E-03,-2.628979E-06
-324.5122E-03,-2.630300E-06
-329.6584E-03,-2.636276E-06
-334.5695E-03,-2.637158E-06
-339.6912E-03,-2.638795E-06
-344.5828E-03,-2.635007E-06
-349.5029E-03,-2.634742E-06
-354.6417E-03,-2.639869E-06
-359.5460E-03,-2.640215E-06
-364.4403E-03,-2.638964E-06
-369.5835E-03,-2.642712E-06
-374.4707E-03,-2.642586E-06
-379.6184E-03,-2.638714E-06
-384.5209E-03,-2.638561E-06
-389.4202E-03,-2.637697E-06
-394.5734E-03,-2.638054E-06
-399.4595E-03,-2.639996E-06
-404.6032E-03,-2.642048E-06
-409.5141E-03,-2.638162E-06
-414.4095E-03,-2.642935E-06
-419.5337E-03,-2.640562E-06
-424.4443E-03,-2.638724E-06
-429.5750E-03,-2.636440E-06
-434.4828E-03,-2.640493E-06
-439.3830E-03,-2.634308E-06
-444.5361E-03,-2.637976E-06
-449.4176E-03,-2.636569E-06
-454.3172E-03,-2.637192E-06
-459.4726E-03,-2.634954E-06
-464.3696E-03,-2.635202E-06
-469.4923E-03,-2.640932E-06
-474.4097E-03,-2.641007E-06
-479.3132E-03,-2.632999E-06
-484.4233E-03,-2.634548E-06
-489.3600E-03,-2.633201E-06
-494.4933E-03,-2.636008E-06
-499.4583E-03,-2.632115E-06

-499.4666E-03,-2.632130E-06
-494.6855E-03,-2.634714E-06
-489.5805E-03,-2.631828E-06
-484.6540E-03,-2.635687E-06
-479.5345E-03,-2.637683E-06
-474.6183E-03,-2.633248E-06
-469.7064E-03,-2.638160E-06
-464.5613E-03,-2.640615E-06
-459.6580E-03,-2.637249E-06
-454.5045E-03,-2.636211E-06
-449.5935E-03,-2.640801E-06
-444.7053E-03,-2.640603E-06
-439.5658E-03,-2.642543E-06
-434.6476E-03,-2.638515E-06
-429.7461E-03,-2.640250E-06
-424.6100E-03,-2.638942E-06
-419.7021E-03,-2.640798E-06
-414.5763E-03,-2.642624E-06
-409.6701E-03,-2.639880E-06
-404.7584E-03,-2.641094E-06
-399.6211E-03,-2.642886E-06
-394.7311E-03,-2.638900E-06
-389.5734E-03,-2.640484E-06
-384.6720E-03,-2.640220E-06
-379.7776E-03,-2.640999E-06
-374.6284E-03,-2.635960E-06
-369.7377E-03,-2.638905E-06
-364.5945E-03,-2.643678E-06
-359.6857E-03,-2.639201E-06
-354.7777E-03,-2.637776E-06
-349.6356E-03,-2.639705E-06
-344.7316E-03,-2.637813E-06
-339.8329E-03,-2.637351E-06
-334.7076E-03,-2.636635E-06
-329.7890E-03,-2.638886E-06
-324.6468E-03,-2.636568E-06
-319.7537E-03,-2.631606E-06
-314.8642E-03,-2.634145E-06
-309.7111E-03,-2.633941E-06
-304.8094E-03,-2.632979E-06
-299.6684E-03,-2.628461E-06
-294.7577E-03,-2.628720E-06
-289.8723E-03,-2.623106E-06
-284.7316E-03,-2.623734E-06
-279.8246E-03,-2.625791E-06
-274.6733E-03,-2.618144E-06
-269.7849E-03,-2.612342E-06
-264.8821E-03,-2.616837E-06
-259.7382E-03,-2.613866E-06
-254.8341E-03,-2.612683E-06
-249.9446E-03,-2.607877E-06
-244.8024E-03,-2.601262E-06
-239.9118E-03,-2.597467E-06
-234.7578E-03,-2.591306E-06
-229.8531E-03,-2.592192E-06
-224.9567E-03,-2.580127E-06
-219.8224E-03,-2.584258E-06
-214.9014E-03,-2.577764E-06
-209.7687E-03,-2.578452E-06
-204.8798E-03,-2.566086E-06
-199.9588E-03,-2.559080E-06
-194.8247E-03,-2.555092E-06
-189.9340E-03,-2.541997E-06
-184.7873E-03,-2.531419E-06
-179.8887E-03,-2.524348E-06
-174.9850E-03,-2.512594E-06
-169.8364E-03,-2.496566E-06
-164.9393E-03,-2.482764E-06
-159.8032E-03,-2.467022E-06
-154.8914E-03,-2.447830E-06
-149.9886E-03,-2.433212E-06
-144.8502E-03,-2.404802E-06
-139.9348E-03,-2.382953E-06
-135.0373E-03,-2.359534E-06
-129.9046E-03,-2.334907E-06
-125.0000E-03,-2.300826E-06
-119.8591E-03,-2.267107E-06
-114.9628E-03,-2.226388E-06
-110.0721E-03,-2.192559E-06
-104.9274E-03,-2.148921E-06
-100.0247E-03,-2.092836E-06
-94.87783E-03,-2.044278E-06
-89.97785E-03,-1.979360E-06
-85.08345E-03,-1.915648E-06
-79.94216E-03,-1.854652E-06
-75.03179E-03,-1.784854E-06
-69.89311E-03,-1.700928E-06
-64.99206E-03,-1.627811E-06
-60.09636E-03,-1.542756E-06
-54.96293E-03,-1.435892E-06
-50.04723E-03,-1.354701E-06
-45.16062E-03,-1.257618E-06
-40.02091E-03,-1.144224E-06
-35.14217E-03,-1.034731E-06
-29.97193E-03,-913.6824E-09
-25.06664E-03,-801.1779E-09
-20.17180E-03,-682.4637E-09
-15.02384E-03,-543.6552E-09
-10.12205E-03,-410.2315E-09
-4.980661E-03,-258.0954E-09
-114.1193E-06,-124.2690E-09
+4.798923E-03,+22.28926E-09
+9.932172E-03,+176.5406E-09
+14.80760E-03,+329.4656E-09
+19.95762E-03,+492.2974E-09
+24.85238E-03,+633.7812E-09
+29.74774E-03,+777.0136E-09
+34.90982E-03,+901.7634E-09
+39.81247E-03,+1.025189E-06
+44.94247E-03,+1.163060E-06
+49.84387E-03,+1.269526E-06
+54.74474E-03,+1.385222E-06
+59.88388E-03,+1.481124E-06
+64.79074E-03,+1.567981E-06
+69.68789E-03,+1.657120E-06
+74.82176E-03,+1.747447E-06
+79.74450E-03,+1.810797E-06
+84.87704E-03,+1.901477E-06
+89.76793E-03,+1.965873E-06
+94.68327E-03,+2.027007E-06
+99.81845E-03,+2.070525E-06
+104.7099E-03,+2.129008E-06
+109.8630E-03,+2.180790E-06
+114.7540E-03,+2.219155E-06
+119.6509E-03,+2.267709E-06
+124.7985E-03,+2.297204E-06
+129.6943E-03,+2.337255E-06
+134.8372E-03,+2.352507E-06
+139.7286E-03,+2.383651E-06
+144.6389E-03,+2.412004E-06
+149.7779E-03,+2.433315E-06
+154.6710E-03,+2.452585E-06
+159.5851E-03,+2.471890E-06
+164.7270E-03,+2.484634E-06
+169.6213E-03,+2.496652E-06
+174.7712E-03,+2.518564E-06
+179.6764E-03,+2.532221E-06
+184.5565E-03,+2.533388E-06
+189.7037E-03,+2.551913E-06
+194.6117E-03,+2.542647E-06
+199.7370E-03,+2.556033E-06
+204.6455E-03,+2.568520E-06
+209.5432E-03,+2.569796E-06
+214.6827E-03,+2.578945E-06
+219.5842E-03,+2.591049E-06
+224.7335E-03,+2.594775E-06
+229.6362E-03,+2.596910E-06
+234.5129E-03,+2.602349E-06
+239.6738E-03,+2.602140E-06
+244.5772E-03,+2.607576E-06
+249.7126E-03,+2.600516E-06
+254.6198E-03,+2.626407E-06
+259.5037E-03,+2.622004E-06
+264.6419E-03,+2.618749E-06
+269.5465E-03,+2.622235E-06
+274.4403E-03,+2.629210E-06
+279.5814E-03,+2.622724E-06
+284.5058E-03,+2.612810E-06
+289.6478E-03,+2.636925E-06
+294.5229E-03,+2.635927E-06
+299.4475E-03,+2.634034E-06
+304.5770E-03,+2.627538E-06
+309.4636E-03,+2.635123E-06
+314.6199E-03,+2.640677E-06
+319.5133E-03,+2.646054E-06
+324.4094E-03,+2.640183E-06
+329.5732E-03,+2.635291E-06
+334.4456E-03,+2.636001E-06
+339.5871E-03,+2.634592E-06
+344.4856E-03,+2.641347E-06
+349.3929E-03,+2.642806E-06
+354.5268E-03,+2.644944E-06
+359.4317E-03,+2.638751E-06
+364.3297E-03,+2.642573E-06
+369.4776E-03,+2.647135E-06
+374.3646E-03,+2.645772E-06
+379.5168E-03,+2.642718E-06
+384.4156E-03,+2.644430E-06
+389.3056E-03,+2.644129E-06
+394.4492E-03,+2.640215E-06
+399.3582E-03,+2.645542E-06
+404.4872E-03,+2.643764E-06
+409.3930E-03,+2.647428E-06
+414.3016E-03,+2.643152E-06
+419.4357E-03,+2.645382E-06
+424.3353E-03,+2.647084E-06
+429.4740E-03,+2.646910E-06
+434.3815E-03,+2.643227E-06
+439.2807E-03,+2.639522E-06
+444.4218E-03,+2.644040E-06
+449.3119E-03,+2.642044E-06
+454.2035E-03,+2.646758E-06
+459.3478E-03,+2.642922E-06
+464.2421E-03,+2.643074E-06
+469.3774E-03,+2.641865E-06
+474.2790E-03,+2.638825E-06
+479.1791E-03,+2.642046E-06
+484.3183E-03,+2.641475E-06
+489.2397E-03,+2.637828E-06
+494.3651E-03,+2.642033E-06
+499.3430E-03,+2.637627E-06

MicroMag 2900/3900 Data File ends
