MicroMag 2900/3900 Data File (Series 0016.002)
Direct moment vs. field; Hysteresis loop

INSTRUMENT
Configuration                   VSM
Temperature control             None
Hardware version                0004
Software version                06/08/2012
Units of measure                Hybrid SI
Temperature in                  Kelvin

SAMPLE
Mass                            N/A
Volume                          N/A
Demagnetizing factor            N/A

SETTINGS
Field range                    +1.000000E+00
Field (command)                 N/A
Moment range                   +5.000000E-06
Averaging time                 +200.0000E-03
Temperature (command)           N/A
Tmprtr difference correction    No
Orientation                     0.000000E+00
Vibration amplitude             1.0
Calibration factor             +3.570920E+00
Operating frequency            +83.00000E+00
Sweep mode                      Discrete
Pause after sweep increment    +300.0000E-03

MEASUREMENT
Description                    "DQ15-33B1"
Field (measured)                N/A
Temperature (measured)          N/A
Averages (completed)            1
Measured on                     10/29/2016  15:15
Elapsed time                   +206.9146E+00

PROCESSING
Background subtraction          No
Delta-m processing              N/A
Demagnetizing factor            No
Normalization                   No
Normalization factor            N/A
Offset (field)                  No
Offset (moment)                 No
Pole saturation                 No
Slope correction                No

VIEWPORT
Left                           -500.0000E-03
Right                          +500.0000E-03
Bottom                         -5.000000E-06
Top                            +5.000000E-06
Show X-axis?                    Yes
Show Y-axis?                    Yes

CHARACTERIZATION
Initial slope                   N/A
Saturation                     +2.622321E-06
Remanence                      +126.4645E-09
Coercivity                     +4.219454E-03
S*                             +159.2272E-06

SCRIPT
Averages (target)               1
Averaging time                 +200.0000E-03
Demagnetize?                    No
Maximum field                  +500.0000E-03
Field increment                +5.000000E-03
Hysteresis loop?                Yes
Initial magnetization?          No
Pause                          +1.000000E+00
Saturate before measuring?      No
Number of segments              2
Number of data                  402

Segment   Averaging      Initial        Field         Final                    Final 
 Number      Time         Field       Increment       Field         Pause      Index 
             (s)           (T)           (T)           (T)           (s)     
0000001,+200.0000E-03,+500.0000E-03,+5.000000E-03,-500.0000E-03,+1.000000E+00,0000201
0000002,+200.0000E-03,-500.0000E-03,+5.000000E-03,+500.0000E-03,+1.000000E+00,0000402

                           
    Field         Moment   
     (T)          (Am²)    
+499.3510E-03,+2.622888E-06
+494.5753E-03,+2.626652E-06
+489.4771E-03,+2.625753E-06
+484.5585E-03,+2.626155E-06
+479.4148E-03,+2.627423E-06
+474.5000E-03,+2.627152E-06
+469.5991E-03,+2.632394E-06
+464.4506E-03,+2.626162E-06
+459.5404E-03,+2.631344E-06
+454.3981E-03,+2.628278E-06
+449.4863E-03,+2.629215E-06
+444.6123E-03,+2.632674E-06
+439.4605E-03,+2.631553E-06
+434.5599E-03,+2.630669E-06
+429.6551E-03,+2.632767E-06
+424.5079E-03,+2.630970E-06
+419.6032E-03,+2.629670E-06
+414.4728E-03,+2.627982E-06
+409.5637E-03,+2.629635E-06
+404.6538E-03,+2.630221E-06
+399.5228E-03,+2.628370E-06
+394.6167E-03,+2.630572E-06
+389.4637E-03,+2.631179E-06
+384.5787E-03,+2.632977E-06
+379.6697E-03,+2.632368E-06
+374.5286E-03,+2.631187E-06
+369.6290E-03,+2.632616E-06
+364.4975E-03,+2.629818E-06
+359.5855E-03,+2.630027E-06
+354.6753E-03,+2.627877E-06
+349.5390E-03,+2.626895E-06
+344.6312E-03,+2.630165E-06
+339.7369E-03,+2.629053E-06
+334.5942E-03,+2.626988E-06
+329.7044E-03,+2.626857E-06
+324.5543E-03,+2.622995E-06
+319.6546E-03,+2.622908E-06
+314.7619E-03,+2.622212E-06
+309.6054E-03,+2.619243E-06
+304.7130E-03,+2.621890E-06
+299.5792E-03,+2.617038E-06
+294.6589E-03,+2.615914E-06
+289.7729E-03,+2.618948E-06
+284.6315E-03,+2.617284E-06
+279.7076E-03,+2.617595E-06
+274.5708E-03,+2.608045E-06
+269.6778E-03,+2.607705E-06
+264.7747E-03,+2.611832E-06
+259.6348E-03,+2.600737E-06
+254.7338E-03,+2.602726E-06
+249.8392E-03,+2.597614E-06
+244.6968E-03,+2.594958E-06
+239.8006E-03,+2.591462E-06
+234.6409E-03,+2.585316E-06
+229.7518E-03,+2.577317E-06
+224.8496E-03,+2.580728E-06
+219.7126E-03,+2.577560E-06
+214.7989E-03,+2.566271E-06
+209.6693E-03,+2.559137E-06
+204.7634E-03,+2.560899E-06
+199.8593E-03,+2.549726E-06
+194.7316E-03,+2.540206E-06
+189.8181E-03,+2.533790E-06
+184.6669E-03,+2.525922E-06
+179.7863E-03,+2.514812E-06
+174.8751E-03,+2.498150E-06
+169.7290E-03,+2.491794E-06
+164.8371E-03,+2.472161E-06
+159.7136E-03,+2.456772E-06
+154.7822E-03,+2.446646E-06
+149.8798E-03,+2.426359E-06
+144.7350E-03,+2.402406E-06
+139.8423E-03,+2.381496E-06
+134.9462E-03,+2.352580E-06
+129.7961E-03,+2.328571E-06
+124.9115E-03,+2.288186E-06
+119.7556E-03,+2.266770E-06
+114.8649E-03,+2.232389E-06
+109.9687E-03,+2.191739E-06
+104.8154E-03,+2.137806E-06
+99.91769E-03,+2.094949E-06
+94.77422E-03,+2.030150E-06
+89.87272E-03,+1.978576E-06
+84.97922E-03,+1.914973E-06
+79.84096E-03,+1.860323E-06
+74.92115E-03,+1.776578E-06
+69.79673E-03,+1.696056E-06
+64.89143E-03,+1.627775E-06
+59.98667E-03,+1.535529E-06
+54.85476E-03,+1.451431E-06
+49.94070E-03,+1.358393E-06
+45.04682E-03,+1.255670E-06
+39.91463E-03,+1.152403E-06
+35.01242E-03,+1.039230E-06
+29.84995E-03,+923.2371E-09
+24.95767E-03,+821.0310E-09
+20.06313E-03,+682.7510E-09
+14.90945E-03,+552.3895E-09
+10.03332E-03,+418.4271E-09
+4.895104E-03,+264.1901E-09
-11.84524E-06,+131.8902E-09
-4.889803E-03,-16.97314E-09
-10.01287E-03,-161.4335E-09
-14.92129E-03,-324.8635E-09
-20.06583E-03,-478.4060E-09
-24.96651E-03,-631.5540E-09
-29.87274E-03,-753.5554E-09
-35.03145E-03,-897.2771E-09
-39.91207E-03,-1.019263E-06
-45.05879E-03,-1.165123E-06
-49.95865E-03,-1.257520E-06
-54.85396E-03,-1.365094E-06
-59.99734E-03,-1.471754E-06
-64.90005E-03,-1.559906E-06
-69.79772E-03,-1.645951E-06
-74.92595E-03,-1.726953E-06
-79.83955E-03,-1.815706E-06
-84.98058E-03,-1.878012E-06
-89.87646E-03,-1.939336E-06
-94.78502E-03,-2.005469E-06
-99.92873E-03,-2.068635E-06
-104.8289E-03,-2.106577E-06
-109.9766E-03,-2.150026E-06
-114.8731E-03,-2.201652E-06
-119.7591E-03,-2.245176E-06
-124.9036E-03,-2.282166E-06
-129.8101E-03,-2.318841E-06
-134.9415E-03,-2.347108E-06
-139.8422E-03,-2.372054E-06
-144.7450E-03,-2.388111E-06
-149.8833E-03,-2.418049E-06
-154.7866E-03,-2.439176E-06
-159.7054E-03,-2.450815E-06
-164.8310E-03,-2.462329E-06
-169.7239E-03,-2.476303E-06
-174.8794E-03,-2.495065E-06
-179.7777E-03,-2.499306E-06
-184.6788E-03,-2.515498E-06
-189.8224E-03,-2.525687E-06
-194.7154E-03,-2.540437E-06
-199.8426E-03,-2.533260E-06
-204.7645E-03,-2.555919E-06
-209.6545E-03,-2.562500E-06
-214.7921E-03,-2.569525E-06
-219.7085E-03,-2.568960E-06
-224.8446E-03,-2.579317E-06
-229.7413E-03,-2.577901E-06
-234.6448E-03,-2.580461E-06
-239.7927E-03,-2.590642E-06
-244.6840E-03,-2.588386E-06
-249.8191E-03,-2.597792E-06
-254.7198E-03,-2.590051E-06
-259.6194E-03,-2.593207E-06
-264.7657E-03,-2.604313E-06
-269.6654E-03,-2.613009E-06
-274.5550E-03,-2.603542E-06
-279.6946E-03,-2.607722E-06
-284.6157E-03,-2.609290E-06
-289.7502E-03,-2.618575E-06
-294.6346E-03,-2.621414E-06
-299.5544E-03,-2.619669E-06
-304.6858E-03,-2.616456E-06
-309.5915E-03,-2.620268E-06
-314.7402E-03,-2.620019E-06
-319.6266E-03,-2.615174E-06
-324.5230E-03,-2.622918E-06
-329.6642E-03,-2.618294E-06
-334.5837E-03,-2.625765E-06
-339.7002E-03,-2.620040E-06
-344.5954E-03,-2.626025E-06
-349.5055E-03,-2.621050E-06
-354.6489E-03,-2.620102E-06
-359.5576E-03,-2.626395E-06
-364.4576E-03,-2.630402E-06
-369.5936E-03,-2.627650E-06
-374.4943E-03,-2.628760E-06
-379.6288E-03,-2.626743E-06
-384.5414E-03,-2.625559E-06
-389.4323E-03,-2.627257E-06
-394.5914E-03,-2.622719E-06
-399.4758E-03,-2.628265E-06
-404.6101E-03,-2.629883E-06
-409.5225E-03,-2.619109E-06
-414.4269E-03,-2.625864E-06
-419.5519E-03,-2.626768E-06
-424.4489E-03,-2.624674E-06
-429.5919E-03,-2.625620E-06
-434.4911E-03,-2.629548E-06
-439.4006E-03,-2.623267E-06
-444.5440E-03,-2.629056E-06
-449.4284E-03,-2.629320E-06
-454.3323E-03,-2.622463E-06
-459.4787E-03,-2.629249E-06
-464.3780E-03,-2.626285E-06
-469.5027E-03,-2.625273E-06
-474.4246E-03,-2.626847E-06
-479.3274E-03,-2.621048E-06
-484.4438E-03,-2.625960E-06
-489.3694E-03,-2.621393E-06
-494.4978E-03,-2.622952E-06
-499.4701E-03,-2.618361E-06

-499.4709E-03,-2.621003E-06
-494.7042E-03,-2.621756E-06
-489.5883E-03,-2.622919E-06
-484.6673E-03,-2.621839E-06
-479.5361E-03,-2.620920E-06
-474.6299E-03,-2.622434E-06
-469.7112E-03,-2.621611E-06
-464.5697E-03,-2.624326E-06
-459.6609E-03,-2.626989E-06
-454.5210E-03,-2.628252E-06
-449.6067E-03,-2.628726E-06
-444.7171E-03,-2.628069E-06
-439.5669E-03,-2.624931E-06
-434.6600E-03,-2.627017E-06
-429.7529E-03,-2.625432E-06
-424.6134E-03,-2.623926E-06
-419.7125E-03,-2.627624E-06
-414.5832E-03,-2.626385E-06
-409.6723E-03,-2.628125E-06
-404.7658E-03,-2.627720E-06
-399.6325E-03,-2.627017E-06
-394.7359E-03,-2.628299E-06
-389.5832E-03,-2.630197E-06
-384.6925E-03,-2.629577E-06
-379.7818E-03,-2.624353E-06
-374.6272E-03,-2.633219E-06
-369.7404E-03,-2.624188E-06
-364.6071E-03,-2.626974E-06
-359.6929E-03,-2.629223E-06
-354.7969E-03,-2.622747E-06
-349.6473E-03,-2.625734E-06
-344.7303E-03,-2.619372E-06
-339.8403E-03,-2.624968E-06
-334.7178E-03,-2.624979E-06
-329.8049E-03,-2.627268E-06
-324.6529E-03,-2.623212E-06
-319.7599E-03,-2.620412E-06
-314.8623E-03,-2.618331E-06
-309.7117E-03,-2.616602E-06
-304.8209E-03,-2.616750E-06
-299.6983E-03,-2.616366E-06
-294.7562E-03,-2.616415E-06
-289.8751E-03,-2.616366E-06
-284.7368E-03,-2.611725E-06
-279.8147E-03,-2.608179E-06
-274.6832E-03,-2.609017E-06
-269.7807E-03,-2.610171E-06
-264.8823E-03,-2.604129E-06
-259.7453E-03,-2.602087E-06
-254.8503E-03,-2.601047E-06
-249.9408E-03,-2.596778E-06
-244.8055E-03,-2.590653E-06
-239.9094E-03,-2.592684E-06
-234.7594E-03,-2.585897E-06
-229.8636E-03,-2.583235E-06
-224.9585E-03,-2.573951E-06
-219.8123E-03,-2.571577E-06
-214.9106E-03,-2.562913E-06
-209.7683E-03,-2.561021E-06
-204.8822E-03,-2.550253E-06
-199.9652E-03,-2.548053E-06
-194.8282E-03,-2.539930E-06
-189.9360E-03,-2.530389E-06
-184.7955E-03,-2.527578E-06
-179.8949E-03,-2.508408E-06
-174.9861E-03,-2.499477E-06
-169.8387E-03,-2.481786E-06
-164.9431E-03,-2.474120E-06
-159.8105E-03,-2.457345E-06
-154.8963E-03,-2.439929E-06
-149.9961E-03,-2.414066E-06
-144.8585E-03,-2.395446E-06
-139.9463E-03,-2.374484E-06
-135.0508E-03,-2.346790E-06
-129.9158E-03,-2.328052E-06
-125.0058E-03,-2.291713E-06
-119.8618E-03,-2.254835E-06
-114.9697E-03,-2.217553E-06
-110.0738E-03,-2.180484E-06
-104.9376E-03,-2.136819E-06
-100.0304E-03,-2.085152E-06
-94.89457E-03,-2.034750E-06
-89.97422E-03,-1.970406E-06
-85.08550E-03,-1.908757E-06
-79.94803E-03,-1.846053E-06
-75.03370E-03,-1.773489E-06
-69.89818E-03,-1.696850E-06
-64.98863E-03,-1.616286E-06
-60.10041E-03,-1.534752E-06
-54.96259E-03,-1.439778E-06
-50.05595E-03,-1.348631E-06
-45.15687E-03,-1.254620E-06
-40.02079E-03,-1.141521E-06
-35.12781E-03,-1.039355E-06
-29.97451E-03,-906.7479E-09
-25.06517E-03,-796.4833E-09
-20.17312E-03,-676.1935E-09
-15.01761E-03,-537.7512E-09
-10.12888E-03,-403.6955E-09
-4.987425E-03,-264.1337E-09
-114.5212E-06,-124.0870E-09
+4.797345E-03,+20.35074E-09
+9.932349E-03,+184.1614E-09
+14.81112E-03,+327.1108E-09
+19.95673E-03,+485.3626E-09
+24.85911E-03,+615.8650E-09
+29.75351E-03,+756.9823E-09
+34.91698E-03,+896.7179E-09
+39.81091E-03,+1.046900E-06
+44.94256E-03,+1.154967E-06
+49.84628E-03,+1.263920E-06
+54.74582E-03,+1.381421E-06
+59.87804E-03,+1.466734E-06
+64.79695E-03,+1.565878E-06
+69.69372E-03,+1.655108E-06
+74.82220E-03,+1.741614E-06
+79.74579E-03,+1.817304E-06
+84.87736E-03,+1.890547E-06
+89.76691E-03,+1.953070E-06
+94.68007E-03,+2.016381E-06
+99.81800E-03,+2.074317E-06
+104.7123E-03,+2.115554E-06
+109.8531E-03,+2.173633E-06
+114.7579E-03,+2.214484E-06
+119.6581E-03,+2.254820E-06
+124.7977E-03,+2.282592E-06
+129.6957E-03,+2.319018E-06
+134.8396E-03,+2.348147E-06
+139.7355E-03,+2.377597E-06
+144.6344E-03,+2.396639E-06
+149.7752E-03,+2.422973E-06
+154.6745E-03,+2.446424E-06
+159.5864E-03,+2.460565E-06
+164.7239E-03,+2.479442E-06
+169.6229E-03,+2.480359E-06
+174.7679E-03,+2.499227E-06
+179.6682E-03,+2.496737E-06
+184.5576E-03,+2.514764E-06
+189.7101E-03,+2.532448E-06
+194.6096E-03,+2.545158E-06
+199.7326E-03,+2.537262E-06
+204.6437E-03,+2.556803E-06
+209.5405E-03,+2.562092E-06
+214.6800E-03,+2.567383E-06
+219.5858E-03,+2.586650E-06
+224.7280E-03,+2.582666E-06
+229.6302E-03,+2.579651E-06
+234.5202E-03,+2.591105E-06
+239.6711E-03,+2.588645E-06
+244.5827E-03,+2.590267E-06
+249.7175E-03,+2.595424E-06
+254.6193E-03,+2.609113E-06
+259.5141E-03,+2.605165E-06
+264.6526E-03,+2.607502E-06
+269.5546E-03,+2.612611E-06
+274.4518E-03,+2.613483E-06
+279.5828E-03,+2.614175E-06
+284.5100E-03,+2.612943E-06
+289.6526E-03,+2.618391E-06
+294.5331E-03,+2.616907E-06
+299.4452E-03,+2.617178E-06
+304.5807E-03,+2.622295E-06
+309.4653E-03,+2.620698E-06
+314.6194E-03,+2.628291E-06
+319.5185E-03,+2.625223E-06
+324.4154E-03,+2.630200E-06
+329.5599E-03,+2.623065E-06
+334.4648E-03,+2.630261E-06
+339.5921E-03,+2.632462E-06
+344.4980E-03,+2.630982E-06
+349.4003E-03,+2.632621E-06
+354.5361E-03,+2.627912E-06
+359.4447E-03,+2.629733E-06
+364.3481E-03,+2.633307E-06
+369.4886E-03,+2.632009E-06
+374.3765E-03,+2.626753E-06
+379.5226E-03,+2.628020E-06
+384.4371E-03,+2.633305E-06
+389.3156E-03,+2.628060E-06
+394.4642E-03,+2.630304E-06
+399.3649E-03,+2.634948E-06
+404.4994E-03,+2.635507E-06
+409.4033E-03,+2.631976E-06
+414.3113E-03,+2.629688E-06
+419.4425E-03,+2.630466E-06
+424.3479E-03,+2.630033E-06
+429.4752E-03,+2.629037E-06
+434.3833E-03,+2.629211E-06
+439.2857E-03,+2.629129E-06
+444.4361E-03,+2.630151E-06
+449.3096E-03,+2.631004E-06
+454.2099E-03,+2.627894E-06
+459.3599E-03,+2.631138E-06
+464.2603E-03,+2.627026E-06
+469.3841E-03,+2.628298E-06
+474.2999E-03,+2.623119E-06
+479.1977E-03,+2.628592E-06
+484.3281E-03,+2.627017E-06
+489.2402E-03,+2.623522E-06
+494.3717E-03,+2.628929E-06
+499.3522E-03,+2.628216E-06

MicroMag 2900/3900 Data File ends
