MicroMag 2900/3900 Data File (Series 0016.002)
Direct moment vs. field; Hysteresis loop

INSTRUMENT
Configuration                   VSM
Temperature control             None
Hardware version                0004
Software version                06/08/2012
Units of measure                Hybrid SI
Temperature in                  Kelvin

SAMPLE
Mass                            N/A
Volume                          N/A
Demagnetizing factor            N/A

SETTINGS
Field range                    +1.000000E+00
Field (command)                 N/A
Moment range                   +5.000000E-06
Averaging time                 +200.0000E-03
Temperature (command)           N/A
Tmprtr difference correction    No
Orientation                     0.000000E+00
Vibration amplitude             1.0
Calibration factor             +3.570920E+00
Operating frequency            +83.00000E+00
Sweep mode                      Discrete
Pause after sweep increment    +300.0000E-03

MEASUREMENT
Description                    "DQ15-33B1"
Field (measured)                N/A
Temperature (measured)          N/A
Averages (completed)            1
Measured on                     10/29/2016  15:12
Elapsed time                   +206.9969E+00

PROCESSING
Background subtraction          No
Delta-m processing              N/A
Demagnetizing factor            No
Normalization                   No
Normalization factor            N/A
Offset (field)                  No
Offset (moment)                 No
Pole saturation                 No
Slope correction                No

VIEWPORT
Left                           -500.0000E-03
Right                          +500.0000E-03
Bottom                         -5.000000E-06
Top                            +5.000000E-06
Show X-axis?                    Yes
Show Y-axis?                    Yes

CHARACTERIZATION
Initial slope                   N/A
Saturation                     +2.621354E-06
Remanence                      +121.4440E-09
Coercivity                     +3.951644E-03
S*                             +115.8066E-06

SCRIPT
Averages (target)               1
Averaging time                 +200.0000E-03
Demagnetize?                    No
Maximum field                  +500.0000E-03
Field increment                +5.000000E-03
Hysteresis loop?                Yes
Initial magnetization?          No
Pause                          +1.000000E+00
Saturate before measuring?      No
Number of segments              2
Number of data                  402

Segment   Averaging      Initial        Field         Final                    Final 
 Number      Time         Field       Increment       Field         Pause      Index 
             (s)           (T)           (T)           (T)           (s)     
0000001,+200.0000E-03,+500.0000E-03,+5.000000E-03,-500.0000E-03,+1.000000E+00,0000201
0000002,+200.0000E-03,-500.0000E-03,+5.000000E-03,+500.0000E-03,+1.000000E+00,0000402

                           
    Field         Moment   
     (T)          (Am²)    
+499.3592E-03,+2.621102E-06
+494.5765E-03,+2.622008E-06
+489.4746E-03,+2.625544E-06
+484.5547E-03,+2.627153E-06
+479.4135E-03,+2.622647E-06
+474.5021E-03,+2.625162E-06
+469.5893E-03,+2.626708E-06
+464.4584E-03,+2.630083E-06
+459.5480E-03,+2.624706E-06
+454.3991E-03,+2.626365E-06
+449.5012E-03,+2.627345E-06
+444.6132E-03,+2.625478E-06
+439.4608E-03,+2.627397E-06
+434.5554E-03,+2.629341E-06
+429.6471E-03,+2.632785E-06
+424.5145E-03,+2.631260E-06
+419.6069E-03,+2.631112E-06
+414.4745E-03,+2.626109E-06
+409.5654E-03,+2.631455E-06
+404.6593E-03,+2.628161E-06
+399.5138E-03,+2.631845E-06
+394.6148E-03,+2.626898E-06
+389.4534E-03,+2.631798E-06
+384.5701E-03,+2.627628E-06
+379.6762E-03,+2.629938E-06
+374.5227E-03,+2.626194E-06
+369.6257E-03,+2.632317E-06
+364.4939E-03,+2.629877E-06
+359.5868E-03,+2.631332E-06
+354.6783E-03,+2.631060E-06
+349.5411E-03,+2.629458E-06
+344.6357E-03,+2.627828E-06
+339.7284E-03,+2.629643E-06
+334.5931E-03,+2.629229E-06
+329.7032E-03,+2.626888E-06
+324.5423E-03,+2.624943E-06
+319.6581E-03,+2.621112E-06
+314.7594E-03,+2.623934E-06
+309.6064E-03,+2.623206E-06
+304.7101E-03,+2.621020E-06
+299.5724E-03,+2.620235E-06
+294.6644E-03,+2.621913E-06
+289.7697E-03,+2.615891E-06
+284.6404E-03,+2.613552E-06
+279.7098E-03,+2.614954E-06
+274.5790E-03,+2.611499E-06
+269.6832E-03,+2.607892E-06
+264.7788E-03,+2.607542E-06
+259.6301E-03,+2.602284E-06
+254.7344E-03,+2.602898E-06
+249.8395E-03,+2.597903E-06
+244.7003E-03,+2.595905E-06
+239.8010E-03,+2.595005E-06
+234.6448E-03,+2.581396E-06
+229.7463E-03,+2.589063E-06
+224.8525E-03,+2.579301E-06
+219.7166E-03,+2.575869E-06
+214.8028E-03,+2.566424E-06
+209.6716E-03,+2.559907E-06
+204.7632E-03,+2.553018E-06
+199.8610E-03,+2.554787E-06
+194.7341E-03,+2.544160E-06
+189.8151E-03,+2.536022E-06
+184.6759E-03,+2.524917E-06
+179.7870E-03,+2.508257E-06
+174.8691E-03,+2.498294E-06
+169.7286E-03,+2.485466E-06
+164.8413E-03,+2.473179E-06
+159.7024E-03,+2.453658E-06
+154.7796E-03,+2.437776E-06
+149.8824E-03,+2.427403E-06
+144.7449E-03,+2.397822E-06
+139.8502E-03,+2.377746E-06
+134.9453E-03,+2.354135E-06
+129.8119E-03,+2.321279E-06
+124.9010E-03,+2.289665E-06
+119.7562E-03,+2.257865E-06
+114.8673E-03,+2.213675E-06
+109.9720E-03,+2.183102E-06
+104.8127E-03,+2.136870E-06
+99.93070E-03,+2.091950E-06
+94.78767E-03,+2.030643E-06
+89.87030E-03,+1.978933E-06
+84.97272E-03,+1.924257E-06
+79.84721E-03,+1.852433E-06
+74.92658E-03,+1.782368E-06
+69.79799E-03,+1.702877E-06
+64.89182E-03,+1.615349E-06
+59.98321E-03,+1.542664E-06
+54.85296E-03,+1.450580E-06
+49.94131E-03,+1.357103E-06
+45.04668E-03,+1.252486E-06
+39.90746E-03,+1.149565E-06
+35.00458E-03,+1.042514E-06
+29.84738E-03,+928.9531E-09
+24.96842E-03,+797.3121E-09
+20.05649E-03,+689.6948E-09
+14.90984E-03,+552.9125E-09
+10.02150E-03,+417.4181E-09
+4.892752E-03,+270.2692E-09
-9.681126E-06,+130.6408E-09
-4.885610E-03,-23.50790E-09
-10.01773E-03,-171.1498E-09
-14.91723E-03,-327.3727E-09
-20.07458E-03,-476.4398E-09
-24.97288E-03,-623.7540E-09
-29.87153E-03,-752.7131E-09
-35.02980E-03,-900.1349E-09
-39.92061E-03,-1.021350E-06
-45.05555E-03,-1.145237E-06
-49.95736E-03,-1.252420E-06
-54.85275E-03,-1.365021E-06
-59.99871E-03,-1.474977E-06
-64.90081E-03,-1.560978E-06
-69.80105E-03,-1.644328E-06
-74.93159E-03,-1.730758E-06
-79.84550E-03,-1.813849E-06
-84.98766E-03,-1.890832E-06
-89.86818E-03,-1.942782E-06
-94.79036E-03,-2.010398E-06
-99.92569E-03,-2.063800E-06
-104.8319E-03,-2.107438E-06
-109.9725E-03,-2.178057E-06
-114.8783E-03,-2.204884E-06
-119.7631E-03,-2.240222E-06
-124.8959E-03,-2.278330E-06
-129.8122E-03,-2.306757E-06
-134.9367E-03,-2.345450E-06
-139.8427E-03,-2.370342E-06
-144.7477E-03,-2.394892E-06
-149.8800E-03,-2.414076E-06
-154.7893E-03,-2.441879E-06
-159.7053E-03,-2.457810E-06
-164.8312E-03,-2.462305E-06
-169.7342E-03,-2.487477E-06
-174.8939E-03,-2.498103E-06
-179.7824E-03,-2.509407E-06
-184.6710E-03,-2.512760E-06
-189.8264E-03,-2.519802E-06
-194.7087E-03,-2.538048E-06
-199.8465E-03,-2.543337E-06
-204.7648E-03,-2.555121E-06
-209.6657E-03,-2.558224E-06
-214.7909E-03,-2.568865E-06
-219.7054E-03,-2.570780E-06
-224.8512E-03,-2.569825E-06
-229.7433E-03,-2.584018E-06
-234.6488E-03,-2.583847E-06
-239.7972E-03,-2.575625E-06
-244.6905E-03,-2.590928E-06
-249.8249E-03,-2.589791E-06
-254.7291E-03,-2.595868E-06
-259.6272E-03,-2.603923E-06
-264.7678E-03,-2.598435E-06
-269.6599E-03,-2.614919E-06
-274.5548E-03,-2.604526E-06
-279.6955E-03,-2.605205E-06
-284.6149E-03,-2.615809E-06
-289.7572E-03,-2.612427E-06
-294.6366E-03,-2.624311E-06
-299.5586E-03,-2.612422E-06
-304.6949E-03,-2.617601E-06
-309.5950E-03,-2.614111E-06
-314.7383E-03,-2.619378E-06
-319.6329E-03,-2.626768E-06
-324.5234E-03,-2.622369E-06
-329.6664E-03,-2.624649E-06
-334.5885E-03,-2.626376E-06
-339.7021E-03,-2.624848E-06
-344.6004E-03,-2.623703E-06
-349.5164E-03,-2.618528E-06
-354.6534E-03,-2.621229E-06
-359.5498E-03,-2.621509E-06
-364.4603E-03,-2.626590E-06
-369.5997E-03,-2.625117E-06
-374.4900E-03,-2.625372E-06
-379.6334E-03,-2.628871E-06
-384.5383E-03,-2.626071E-06
-389.4409E-03,-2.628897E-06
-394.5926E-03,-2.621694E-06
-399.4794E-03,-2.626757E-06
-404.6132E-03,-2.623419E-06
-409.5204E-03,-2.628949E-06
-414.4222E-03,-2.630040E-06
-419.5521E-03,-2.622588E-06
-424.4616E-03,-2.624390E-06
-429.5919E-03,-2.624687E-06
-434.4919E-03,-2.629703E-06
-439.3977E-03,-2.624317E-06
-444.5591E-03,-2.622971E-06
-449.4298E-03,-2.627615E-06
-454.3260E-03,-2.626500E-06
-459.4776E-03,-2.621403E-06
-464.3827E-03,-2.624695E-06
-469.5155E-03,-2.625936E-06
-474.4228E-03,-2.625190E-06
-479.3314E-03,-2.622495E-06
-484.4562E-03,-2.632165E-06
-489.3701E-03,-2.619066E-06
-494.5053E-03,-2.626903E-06
-499.4776E-03,-2.618412E-06

-499.4754E-03,-2.619296E-06
-494.7025E-03,-2.618726E-06
-489.5924E-03,-2.626705E-06
-484.6721E-03,-2.619492E-06
-479.5476E-03,-2.619603E-06
-474.6344E-03,-2.625354E-06
-469.7118E-03,-2.627567E-06
-464.5643E-03,-2.623437E-06
-459.6619E-03,-2.625093E-06
-454.5136E-03,-2.628399E-06
-449.6119E-03,-2.629433E-06
-444.7203E-03,-2.628235E-06
-439.5644E-03,-2.624894E-06
-434.6593E-03,-2.626206E-06
-429.7587E-03,-2.627929E-06
-424.6185E-03,-2.625984E-06
-419.7191E-03,-2.624257E-06
-414.5795E-03,-2.625108E-06
-409.6715E-03,-2.626739E-06
-404.7617E-03,-2.628322E-06
-399.6316E-03,-2.629384E-06
-394.7405E-03,-2.627234E-06
-389.5863E-03,-2.623372E-06
-384.6877E-03,-2.629107E-06
-379.7775E-03,-2.625264E-06
-374.6340E-03,-2.625370E-06
-369.7351E-03,-2.625224E-06
-364.5940E-03,-2.625458E-06
-359.6841E-03,-2.624206E-06
-354.7879E-03,-2.625162E-06
-349.6560E-03,-2.621111E-06
-344.7346E-03,-2.626231E-06
-339.8407E-03,-2.622630E-06
-334.7157E-03,-2.625756E-06
-329.8028E-03,-2.620523E-06
-324.6570E-03,-2.617197E-06
-319.7689E-03,-2.620737E-06
-314.8658E-03,-2.619913E-06
-309.7196E-03,-2.619238E-06
-304.8216E-03,-2.615056E-06
-299.6832E-03,-2.617956E-06
-294.7717E-03,-2.614826E-06
-289.8823E-03,-2.611019E-06
-284.7430E-03,-2.611382E-06
-279.8182E-03,-2.608697E-06
-274.6847E-03,-2.607286E-06
-269.7836E-03,-2.605656E-06
-264.8923E-03,-2.603424E-06
-259.7481E-03,-2.601980E-06
-254.8383E-03,-2.596978E-06
-249.9434E-03,-2.593263E-06
-244.8065E-03,-2.595387E-06
-239.9220E-03,-2.587258E-06
-234.7629E-03,-2.579638E-06
-229.8491E-03,-2.577762E-06
-224.9641E-03,-2.578035E-06
-219.8239E-03,-2.575502E-06
-214.9168E-03,-2.562856E-06
-209.7667E-03,-2.559919E-06
-204.8798E-03,-2.545789E-06
-199.9582E-03,-2.548986E-06
-194.8250E-03,-2.534554E-06
-189.9350E-03,-2.529991E-06
-184.7923E-03,-2.519686E-06
-179.8924E-03,-2.505905E-06
-174.9935E-03,-2.500004E-06
-169.8413E-03,-2.482284E-06
-164.9369E-03,-2.469980E-06
-159.8101E-03,-2.452221E-06
-154.8932E-03,-2.441444E-06
-149.9838E-03,-2.421157E-06
-144.8564E-03,-2.399016E-06
-139.9492E-03,-2.373958E-06
-135.0456E-03,-2.348047E-06
-129.9123E-03,-2.325371E-06
-125.0099E-03,-2.290325E-06
-119.8713E-03,-2.260107E-06
-114.9632E-03,-2.213569E-06
-110.0839E-03,-2.174480E-06
-104.9348E-03,-2.132414E-06
-100.0295E-03,-2.081625E-06
-94.87750E-03,-2.029489E-06
-89.96583E-03,-1.969699E-06
-85.09236E-03,-1.917927E-06
-79.94644E-03,-1.842671E-06
-75.03127E-03,-1.774624E-06
-69.89823E-03,-1.693870E-06
-64.99896E-03,-1.620777E-06
-60.10355E-03,-1.529129E-06
-54.96217E-03,-1.440081E-06
-50.05437E-03,-1.353194E-06
-45.15710E-03,-1.249644E-06
-40.02023E-03,-1.145520E-06
-35.12646E-03,-1.038528E-06
-29.96256E-03,-924.1918E-09
-25.06180E-03,-795.9495E-09
-20.16853E-03,-673.0046E-09
-15.01974E-03,-538.1239E-09
-10.12911E-03,-413.1086E-09
-4.983395E-03,-256.1464E-09
-112.0987E-06,-115.3086E-09
+4.805600E-03,+31.08947E-09
+9.940419E-03,+175.2931E-09
+14.80920E-03,+331.7976E-09
+19.96005E-03,+489.3338E-09
+24.86298E-03,+626.9385E-09
+29.74852E-03,+764.4954E-09
+34.91216E-03,+899.6434E-09
+39.81332E-03,+1.012795E-06
+44.94266E-03,+1.163056E-06
+49.84519E-03,+1.258012E-06
+54.75010E-03,+1.372997E-06
+59.88844E-03,+1.472060E-06
+64.79347E-03,+1.567373E-06
+69.69358E-03,+1.645680E-06
+74.81742E-03,+1.742834E-06
+79.73503E-03,+1.813275E-06
+84.88598E-03,+1.892107E-06
+89.77550E-03,+1.955781E-06
+94.68218E-03,+2.009164E-06
+99.80816E-03,+2.063352E-06
+104.7110E-03,+2.125638E-06
+109.8622E-03,+2.177273E-06
+114.7589E-03,+2.214381E-06
+119.6563E-03,+2.251198E-06
+124.7992E-03,+2.290134E-06
+129.6961E-03,+2.326316E-06
+134.8370E-03,+2.346339E-06
+139.7297E-03,+2.375803E-06
+144.6310E-03,+2.412132E-06
+149.7783E-03,+2.417230E-06
+154.6739E-03,+2.441151E-06
+159.5970E-03,+2.455054E-06
+164.7259E-03,+2.476528E-06
+169.6113E-03,+2.492466E-06
+174.7653E-03,+2.500454E-06
+179.6782E-03,+2.518436E-06
+184.5545E-03,+2.527037E-06
+189.7101E-03,+2.530226E-06
+194.6098E-03,+2.531222E-06
+199.7369E-03,+2.546136E-06
+204.6377E-03,+2.554216E-06
+209.5479E-03,+2.566540E-06
+214.6879E-03,+2.564582E-06
+219.5972E-03,+2.573824E-06
+224.7273E-03,+2.579115E-06
+229.6214E-03,+2.577462E-06
+234.5251E-03,+2.590907E-06
+239.6746E-03,+2.598029E-06
+244.5751E-03,+2.590733E-06
+249.7100E-03,+2.598253E-06
+254.6205E-03,+2.599985E-06
+259.5101E-03,+2.602683E-06
+264.6466E-03,+2.609335E-06
+269.5648E-03,+2.607447E-06
+274.4480E-03,+2.608805E-06
+279.5882E-03,+2.610231E-06
+284.5135E-03,+2.614562E-06
+289.6567E-03,+2.617458E-06
+294.5380E-03,+2.615537E-06
+299.4386E-03,+2.620865E-06
+304.5801E-03,+2.610610E-06
+309.4766E-03,+2.624772E-06
+314.6199E-03,+2.625309E-06
+319.5194E-03,+2.618765E-06
+324.4172E-03,+2.622406E-06
+329.5730E-03,+2.627013E-06
+334.4620E-03,+2.628020E-06
+339.6018E-03,+2.622721E-06
+344.5038E-03,+2.623373E-06
+349.3961E-03,+2.631207E-06
+354.5387E-03,+2.628573E-06
+359.4419E-03,+2.625600E-06
+364.3402E-03,+2.633174E-06
+369.4805E-03,+2.631661E-06
+374.3806E-03,+2.632702E-06
+379.5268E-03,+2.628684E-06
+384.4300E-03,+2.634230E-06
+389.3148E-03,+2.633227E-06
+394.4703E-03,+2.625132E-06
+399.3695E-03,+2.631660E-06
+404.5016E-03,+2.629700E-06
+409.4068E-03,+2.627947E-06
+414.3093E-03,+2.630137E-06
+419.4435E-03,+2.627608E-06
+424.3357E-03,+2.624509E-06
+429.4855E-03,+2.629978E-06
+434.3785E-03,+2.629852E-06
+439.2877E-03,+2.624252E-06
+444.4311E-03,+2.630392E-06
+449.3186E-03,+2.624689E-06
+454.2109E-03,+2.626927E-06
+459.3624E-03,+2.628782E-06
+464.2576E-03,+2.629153E-06
+469.3916E-03,+2.626367E-06
+474.2969E-03,+2.626131E-06
+479.1996E-03,+2.627123E-06
+484.3256E-03,+2.625189E-06
+489.2463E-03,+2.626116E-06
+494.3833E-03,+2.623867E-06
+499.3483E-03,+2.622855E-06

MicroMag 2900/3900 Data File ends
