MicroMag 2900/3900 Data File (Series 0016.002)
Direct moment vs. field; Hysteresis loop

INSTRUMENT
Configuration                   VSM
Temperature control             None
Hardware version                0004
Software version                06/08/2012
Units of measure                Hybrid SI
Temperature in                  Kelvin

SAMPLE
Mass                            N/A
Volume                          N/A
Demagnetizing factor            N/A

SETTINGS
Field range                    +1.000000E+00
Field (command)                 N/A
Moment range                   +5.000000E-06
Averaging time                 +200.0000E-03
Temperature (command)           N/A
Tmprtr difference correction    No
Orientation                     0.000000E+00
Vibration amplitude             1.0
Calibration factor             +3.570920E+00
Operating frequency            +83.00000E+00
Sweep mode                      Continuous
Pause after sweep increment    +300.0000E-03

MEASUREMENT
Description                    "DQ15-33B1"
Field (measured)                N/A
Temperature (measured)          N/A
Averages (completed)            1
Measured on                     10/29/2016  14:44
Elapsed time                   +84.35355E+00

PROCESSING
Background subtraction          No
Delta-m processing              N/A
Demagnetizing factor            No
Normalization                   No
Normalization factor            N/A
Offset (field)                  No
Offset (moment)                 No
Pole saturation                 No
Slope correction                No

VIEWPORT
Left                           -500.0000E-03
Right                          +500.0000E-03
Bottom                         -5.000000E-06
Top                            +5.000000E-06
Show X-axis?                    Yes
Show Y-axis?                    Yes

CHARACTERIZATION
Initial slope                   N/A
Saturation                     +2.613870E-06
Remanence                      +135.7316E-09
Coercivity                     +3.880643E-03
S*                             +6.300093E-03

SCRIPT
Averages (target)               1
Averaging time                 +200.0000E-03
Demagnetize?                    No
Maximum field                  +500.0000E-03
Field increment                +5.000000E-03
Hysteresis loop?                Yes
Initial magnetization?          No
Pause                          +1.000000E+00
Saturate before measuring?      No
Number of segments              2
Number of data                  402

Segment   Averaging      Initial        Field         Final                    Final 
 Number      Time         Field       Increment       Field         Pause      Index 
             (s)           (T)           (T)           (T)           (s)     
0000001,+200.0000E-03,+500.0000E-03,+5.000000E-03,-500.0000E-03,+1.000000E+00,0000201
0000002,+200.0000E-03,-500.0000E-03,+5.000000E-03,+500.0000E-03,+1.000000E+00,0000402

                           
    Field         Moment   
     (T)          (Am²)    
+499.3716E-03,+2.614948E-06
+495.1720E-03,+2.617004E-06
+489.9589E-03,+2.617807E-06
+485.5825E-03,+2.610430E-06
+480.1549E-03,+2.622770E-06
+474.8349E-03,+2.624393E-06
+469.7973E-03,+2.621063E-06
+464.7413E-03,+2.619346E-06
+459.8050E-03,+2.622822E-06
+454.7244E-03,+2.623967E-06
+449.7861E-03,+2.619392E-06
+444.7550E-03,+2.620435E-06
+439.7289E-03,+2.622946E-06
+434.7452E-03,+2.621774E-06
+429.7385E-03,+2.619008E-06
+424.7531E-03,+2.623043E-06
+419.7467E-03,+2.626480E-06
+414.7522E-03,+2.633346E-06
+409.7486E-03,+2.628351E-06
+404.7435E-03,+2.629584E-06
+399.7657E-03,+2.628236E-06
+394.7473E-03,+2.621015E-06
+389.6991E-03,+2.626886E-06
+384.7478E-03,+2.634071E-06
+379.7703E-03,+2.622245E-06
+374.7444E-03,+2.620591E-06
+369.7632E-03,+2.622063E-06
+364.8048E-03,+2.619933E-06
+359.7814E-03,+2.617142E-06
+354.7477E-03,+2.631786E-06
+349.7649E-03,+2.624318E-06
+344.7844E-03,+2.620338E-06
+339.7601E-03,+2.625544E-06
+334.7858E-03,+2.625001E-06
+329.7731E-03,+2.613616E-06
+324.7968E-03,+2.612051E-06
+319.7922E-03,+2.614927E-06
+314.8122E-03,+2.624172E-06
+309.7904E-03,+2.617087E-06
+304.7976E-03,+2.598083E-06
+299.8034E-03,+2.620023E-06
+294.8253E-03,+2.620478E-06
+289.8445E-03,+2.605350E-06
+284.8347E-03,+2.618792E-06
+279.8538E-03,+2.601617E-06
+274.7681E-03,+2.622091E-06
+269.8205E-03,+2.612549E-06
+264.8169E-03,+2.596694E-06
+259.8333E-03,+2.617727E-06
+254.8674E-03,+2.598225E-06
+249.8970E-03,+2.597211E-06
+244.9433E-03,+2.586522E-06
+239.8697E-03,+2.591758E-06
+234.8708E-03,+2.576188E-06
+229.9208E-03,+2.581490E-06
+224.8758E-03,+2.569471E-06
+219.8795E-03,+2.568177E-06
+214.8793E-03,+2.553783E-06
+209.9202E-03,+2.547096E-06
+204.8715E-03,+2.549794E-06
+199.9564E-03,+2.522533E-06
+194.8455E-03,+2.503108E-06
+189.8340E-03,+2.520477E-06
+184.9039E-03,+2.510011E-06
+179.9821E-03,+2.513748E-06
+174.9272E-03,+2.501541E-06
+169.9193E-03,+2.507830E-06
+164.9034E-03,+2.485765E-06
+159.9017E-03,+2.460895E-06
+154.9412E-03,+2.436153E-06
+149.9244E-03,+2.441638E-06
+144.9400E-03,+2.437810E-06
+139.9511E-03,+2.377089E-06
+134.9632E-03,+2.353886E-06
+129.9043E-03,+2.289827E-06
+124.9622E-03,+2.331637E-06
+119.9571E-03,+2.242438E-06
+114.9332E-03,+2.265907E-06
+109.9724E-03,+2.163070E-06
+105.0087E-03,+2.169952E-06
+99.98423E-03,+2.097879E-06
+94.97058E-03,+2.041896E-06
+89.94979E-03,+1.982744E-06
+84.97813E-03,+1.899321E-06
+80.02157E-03,+1.817109E-06
+74.99271E-03,+1.800790E-06
+70.01859E-03,+1.716645E-06
+65.02187E-03,+1.595740E-06
+60.02540E-03,+1.532036E-06
+55.05359E-03,+1.427698E-06
+50.05433E-03,+1.362823E-06
+44.98171E-03,+1.255671E-06
+40.02258E-03,+1.117686E-06
+35.05088E-03,+1.055621E-06
+30.04853E-03,+928.0818E-09
+25.06025E-03,+824.2926E-09
+20.05640E-03,+683.6314E-09
+14.99734E-03,+525.5447E-09
+10.07180E-03,+459.5802E-09
+5.103072E-03,+319.0991E-09
+103.7516E-06,+170.6285E-09
-4.867536E-03,-79.14676E-09
-9.855497E-03,-173.3581E-09
-14.78606E-03,-307.7697E-09
-19.85617E-03,-462.6705E-09
-24.85152E-03,-615.4161E-09
-29.83233E-03,-750.8295E-09
-34.87756E-03,-887.1392E-09
-39.86482E-03,-995.6616E-09
-44.85168E-03,-1.184029E-06
-49.82025E-03,-1.274718E-06
-54.81923E-03,-1.343291E-06
-59.80112E-03,-1.471559E-06
-64.79533E-03,-1.514277E-06
-69.88394E-03,-1.636514E-06
-74.78999E-03,-1.730026E-06
-79.77839E-03,-1.789810E-06
-84.79595E-03,-1.894163E-06
-89.74977E-03,-1.977031E-06
-94.74642E-03,-2.067587E-06
-99.76619E-03,-2.076941E-06
-104.7590E-03,-2.107162E-06
-109.7739E-03,-2.140854E-06
-114.7486E-03,-2.188308E-06
-119.7424E-03,-2.269577E-06
-124.7351E-03,-2.277249E-06
-129.7146E-03,-2.305963E-06
-134.7293E-03,-2.362757E-06
-139.7045E-03,-2.364471E-06
-144.7144E-03,-2.373792E-06
-149.6894E-03,-2.399478E-06
-154.7453E-03,-2.442802E-06
-159.7064E-03,-2.463549E-06
-164.6658E-03,-2.470476E-06
-169.6821E-03,-2.454824E-06
-174.6763E-03,-2.516928E-06
-179.6296E-03,-2.465064E-06
-184.6814E-03,-2.508282E-06
-189.6902E-03,-2.493387E-06
-194.6185E-03,-2.516621E-06
-199.6339E-03,-2.559540E-06
-204.6489E-03,-2.569008E-06
-209.6468E-03,-2.573131E-06
-214.6071E-03,-2.541706E-06
-219.6298E-03,-2.564727E-06
-224.6168E-03,-2.582186E-06
-229.5977E-03,-2.575117E-06
-234.6273E-03,-2.586230E-06
-239.6337E-03,-2.596469E-06
-244.5892E-03,-2.586084E-06
-249.5758E-03,-2.604677E-06
-254.5595E-03,-2.593625E-06
-259.5813E-03,-2.573621E-06
-264.5108E-03,-2.611754E-06
-269.5922E-03,-2.589683E-06
-274.5531E-03,-2.588872E-06
-279.5370E-03,-2.578454E-06
-284.5657E-03,-2.615822E-06
-289.5433E-03,-2.632934E-06
-294.4956E-03,-2.623350E-06
-299.5200E-03,-2.605213E-06
-304.5069E-03,-2.626945E-06
-309.5143E-03,-2.616603E-06
-314.4892E-03,-2.614898E-06
-319.5083E-03,-2.592778E-06
-324.5260E-03,-2.604166E-06
-329.4654E-03,-2.592803E-06
-334.4862E-03,-2.614718E-06
-339.4566E-03,-2.628340E-06
-344.4598E-03,-2.619785E-06
-349.4659E-03,-2.611684E-06
-354.4929E-03,-2.603879E-06
-359.4504E-03,-2.627790E-06
-364.4332E-03,-2.613318E-06
-369.4202E-03,-2.603430E-06
-374.4204E-03,-2.611291E-06
-379.3783E-03,-2.618400E-06
-384.4230E-03,-2.613848E-06
-389.3835E-03,-2.610774E-06
-394.3864E-03,-2.592785E-06
-399.3855E-03,-2.601866E-06
-404.3605E-03,-2.606412E-06
-409.4279E-03,-2.616224E-06
-414.3581E-03,-2.623118E-06
-419.3629E-03,-2.634093E-06
-424.3461E-03,-2.633105E-06
-429.3215E-03,-2.619201E-06
-434.3365E-03,-2.627612E-06
-439.3614E-03,-2.604542E-06
-444.3083E-03,-2.631843E-06
-449.3091E-03,-2.624146E-06
-454.2986E-03,-2.616407E-06
-459.3024E-03,-2.623346E-06
-464.2623E-03,-2.618961E-06
-469.2710E-03,-2.629847E-06
-474.2587E-03,-2.609956E-06
-479.2598E-03,-2.626572E-06
-484.2607E-03,-2.628208E-06
-489.2703E-03,-2.618123E-06
-494.2015E-03,-2.594860E-06
-499.4622E-03,-2.611043E-06

-499.4717E-03,-2.612519E-06
-494.7448E-03,-2.609246E-06
-489.7949E-03,-2.614143E-06
-484.8234E-03,-2.612846E-06
-479.8581E-03,-2.615712E-06
-474.9186E-03,-2.615306E-06
-469.9012E-03,-2.620656E-06
-464.8728E-03,-2.618985E-06
-459.8603E-03,-2.617762E-06
-454.8810E-03,-2.617953E-06
-449.8494E-03,-2.623373E-06
-444.8645E-03,-2.618340E-06
-439.8285E-03,-2.624867E-06
-434.8370E-03,-2.620139E-06
-429.8676E-03,-2.625604E-06
-424.8599E-03,-2.624479E-06
-419.8811E-03,-2.626100E-06
-414.8533E-03,-2.623113E-06
-409.7869E-03,-2.625789E-06
-404.8527E-03,-2.626939E-06
-399.8421E-03,-2.620662E-06
-394.8612E-03,-2.615863E-06
-389.8826E-03,-2.617960E-06
-384.8816E-03,-2.627520E-06
-379.8655E-03,-2.617663E-06
-374.8710E-03,-2.628883E-06
-369.8786E-03,-2.624656E-06
-364.8727E-03,-2.617759E-06
-359.8554E-03,-2.621389E-06
-354.8831E-03,-2.631330E-06
-349.8724E-03,-2.631292E-06
-344.8620E-03,-2.611692E-06
-339.8674E-03,-2.612347E-06
-334.8726E-03,-2.625839E-06
-329.8695E-03,-2.617599E-06
-325.2733E-03,-2.621331E-06
-320.1868E-03,-2.601905E-06
-314.9512E-03,-2.614699E-06
-310.6037E-03,-2.619885E-06
-304.8905E-03,-2.623176E-06
-299.6686E-03,-2.616279E-06
-294.8595E-03,-2.608142E-06
-289.9190E-03,-2.610324E-06
-284.9708E-03,-2.608642E-06
-279.9296E-03,-2.620518E-06
-274.9383E-03,-2.600584E-06
-269.9342E-03,-2.598150E-06
-264.9382E-03,-2.600448E-06
-259.9302E-03,-2.597528E-06
-254.9180E-03,-2.612607E-06
-249.9521E-03,-2.601898E-06
-244.9450E-03,-2.594930E-06
-239.9645E-03,-2.584028E-06
-234.9520E-03,-2.577626E-06
-229.9706E-03,-2.577774E-06
-224.9390E-03,-2.584735E-06
-219.9812E-03,-2.582701E-06
-214.9585E-03,-2.580451E-06
-209.9842E-03,-2.548610E-06
-204.9863E-03,-2.551524E-06
-200.0307E-03,-2.549116E-06
-194.9704E-03,-2.548635E-06
-189.9978E-03,-2.546513E-06
-184.9898E-03,-2.517754E-06
-180.0036E-03,-2.516570E-06
-175.0157E-03,-2.451356E-06
-170.0161E-03,-2.468535E-06
-165.0176E-03,-2.476642E-06
-160.0232E-03,-2.445376E-06
-155.0187E-03,-2.436710E-06
-150.0451E-03,-2.405270E-06
-145.0492E-03,-2.393796E-06
-139.9849E-03,-2.363292E-06
-135.0284E-03,-2.321211E-06
-130.0433E-03,-2.302451E-06
-125.0476E-03,-2.247443E-06
-120.0605E-03,-2.254851E-06
-115.1191E-03,-2.213602E-06
-110.0773E-03,-2.148256E-06
-105.1041E-03,-2.150989E-06
-100.0782E-03,-2.033915E-06
-95.09428E-03,-2.029765E-06
-90.06873E-03,-1.948735E-06
-85.10578E-03,-1.891872E-06
-80.10460E-03,-1.847986E-06
-75.10487E-03,-1.792170E-06
-70.12144E-03,-1.649227E-06
-65.12302E-03,-1.622291E-06
-60.14551E-03,-1.513254E-06
-55.12382E-03,-1.409941E-06
-50.13090E-03,-1.372175E-06
-45.13663E-03,-1.250876E-06
-40.13846E-03,-1.143545E-06
-35.16004E-03,-1.043980E-06
-30.15698E-03,-916.8443E-09
-25.08219E-03,-759.1657E-09
-20.15901E-03,-695.0310E-09
-15.14213E-03,-567.2591E-09
-10.14509E-03,-421.1895E-09
-5.193654E-03,-281.6026E-09
-230.9514E-06,-111.5280E-09
+4.800275E-03,+7.860760E-09
+9.774868E-03,+172.0508E-09
+14.77193E-03,+330.9091E-09
+19.75450E-03,+449.9713E-09
+24.75010E-03,+624.2354E-09
+29.73581E-03,+792.0759E-09
+34.73800E-03,+935.0253E-09
+39.74213E-03,+1.012998E-06
+44.72846E-03,+1.147837E-06
+49.72362E-03,+1.234288E-06
+54.71787E-03,+1.397948E-06
+59.76298E-03,+1.423965E-06
+64.72935E-03,+1.574463E-06
+69.69287E-03,+1.592527E-06
+74.68411E-03,+1.756179E-06
+79.69889E-03,+1.805337E-06
+84.65354E-03,+1.919918E-06
+89.68379E-03,+1.929268E-06
+94.67266E-03,+2.010353E-06
+99.67811E-03,+2.036850E-06
+104.6398E-03,+2.103285E-06
+109.6584E-03,+2.135149E-06
+114.6624E-03,+2.200080E-06
+119.6512E-03,+2.238119E-06
+124.6388E-03,+2.303777E-06
+129.6252E-03,+2.353395E-06
+134.6238E-03,+2.393839E-06
+139.6482E-03,+2.371071E-06
+144.6416E-03,+2.361778E-06
+149.5938E-03,+2.451161E-06
+154.5672E-03,+2.444316E-06
+159.6089E-03,+2.489670E-06
+164.5885E-03,+2.434397E-06
+169.5307E-03,+2.485343E-06
+174.5897E-03,+2.507263E-06
+179.5491E-03,+2.515033E-06
+184.6287E-03,+2.471146E-06
+189.6197E-03,+2.525747E-06
+194.5872E-03,+2.511172E-06
+199.7274E-03,+2.561133E-06
+204.0703E-03,+2.520924E-06
+209.3735E-03,+2.579485E-06
+214.3178E-03,+2.546627E-06
+219.5395E-03,+2.573052E-06
+224.5751E-03,+2.532654E-06
+229.5531E-03,+2.557700E-06
+234.5153E-03,+2.584100E-06
+239.5170E-03,+2.592425E-06
+244.5305E-03,+2.604019E-06
+249.4848E-03,+2.618514E-06
+254.4562E-03,+2.579140E-06
+259.4779E-03,+2.612713E-06
+264.3998E-03,+2.579382E-06
+269.4745E-03,+2.618784E-06
+274.4444E-03,+2.578656E-06
+279.3901E-03,+2.601257E-06
+284.4706E-03,+2.608693E-06
+289.4505E-03,+2.618892E-06
+294.3960E-03,+2.596414E-06
+299.4265E-03,+2.625877E-06
+304.3955E-03,+2.610849E-06
+309.4292E-03,+2.603920E-06
+314.4124E-03,+2.595922E-06
+319.4072E-03,+2.582799E-06
+324.4019E-03,+2.624329E-06
+329.3604E-03,+2.623099E-06
+334.3885E-03,+2.635851E-06
+339.3609E-03,+2.638867E-06
+344.3633E-03,+2.617197E-06
+349.3582E-03,+2.610299E-06
+354.3743E-03,+2.611675E-06
+359.3519E-03,+2.629901E-06
+364.3414E-03,+2.618582E-06
+369.3235E-03,+2.619054E-06
+374.3218E-03,+2.619578E-06
+379.2263E-03,+2.616407E-06
+384.3185E-03,+2.635687E-06
+389.2794E-03,+2.648899E-06
+394.2908E-03,+2.630205E-06
+399.2891E-03,+2.612941E-06
+404.2615E-03,+2.621707E-06
+409.2710E-03,+2.637242E-06
+414.2511E-03,+2.631119E-06
+419.2456E-03,+2.640568E-06
+424.2383E-03,+2.634301E-06
+429.1995E-03,+2.615562E-06
+434.2158E-03,+2.614019E-06
+439.2550E-03,+2.631045E-06
+444.2109E-03,+2.608782E-06
+449.2142E-03,+2.620405E-06
+454.2001E-03,+2.628186E-06
+459.1987E-03,+2.639719E-06
+464.1126E-03,+2.615385E-06
+469.1595E-03,+2.622352E-06
+474.1594E-03,+2.615839E-06
+479.1236E-03,+2.631782E-06
+484.1436E-03,+2.629487E-06
+489.1597E-03,+2.607821E-06
+494.1144E-03,+2.615001E-06
+499.3612E-03,+2.621458E-06

MicroMag 2900/3900 Data File ends
