MicroMag 2900/3900 Data File (Series 0016.002)
Direct moment vs. field; Hysteresis loop

INSTRUMENT
Configuration                   VSM
Temperature control             None
Hardware version                0004
Software version                06/08/2012
Units of measure                Hybrid SI
Temperature in                  Kelvin

SAMPLE
Mass                            N/A
Volume                          N/A
Demagnetizing factor            N/A

SETTINGS
Field range                    +1.000000E+00
Field (command)                 N/A
Moment range                   +5.000000E-06
Averaging time                 +100.0000E-03
Temperature (command)           N/A
Tmprtr difference correction    No
Orientation                     0.000000E+00
Vibration amplitude             1.0
Calibration factor             +3.570920E+00
Operating frequency            +83.00000E+00
Sweep mode                      Discrete
Pause after sweep increment    +300.0000E-03

MEASUREMENT
Description                    "DQ15-33B1"
Field (measured)                N/A
Temperature (measured)          N/A
Averages (completed)            1
Measured on                     10/29/2016  13:37
Elapsed time                   +166.8517E+00

PROCESSING
Background subtraction          No
Delta-m processing              N/A
Demagnetizing factor            No
Normalization                   No
Normalization factor            N/A
Offset (field)                  No
Offset (moment)                 No
Pole saturation                 No
Slope correction                No

VIEWPORT
Left                           -500.0000E-03
Right                          +500.0000E-03
Bottom                         -5.000000E-06
Top                            +5.000000E-06
Show X-axis?                    Yes
Show Y-axis?                    Yes

CHARACTERIZATION
Initial slope                   N/A
Saturation                     +2.605762E-06
Remanence                      +134.4798E-09
Coercivity                     +4.307681E-03
S*                             +553.8371E-06

SCRIPT
Averages (target)               1
Averaging time                 +100.0000E-03
Demagnetize?                    No
Maximum field                  +500.0000E-03
Field increment                +5.000000E-03
Hysteresis loop?                Yes
Initial magnetization?          No
Pause                          +1.000000E+00
Saturate before measuring?      No
Number of segments              2
Number of data                  402

Segment   Averaging      Initial        Field         Final                    Final 
 Number      Time         Field       Increment       Field         Pause      Index 
             (s)           (T)           (T)           (T)           (s)     
0000001,+100.0000E-03,+500.0000E-03,+5.000000E-03,-500.0000E-03,+1.000000E+00,0000201
0000002,+100.0000E-03,-500.0000E-03,+5.000000E-03,+500.0000E-03,+1.000000E+00,0000402

                           
    Field         Moment   
     (T)          (Am²)    
+499.3755E-03,+2.606435E-06
+494.6055E-03,+2.607380E-06
+489.5298E-03,+2.612840E-06
+484.6058E-03,+2.605843E-06
+479.4537E-03,+2.611106E-06
+474.5632E-03,+2.610733E-06
+469.6417E-03,+2.609607E-06
+464.5019E-03,+2.613116E-06
+459.6038E-03,+2.614224E-06
+454.4537E-03,+2.604780E-06
+449.5438E-03,+2.611308E-06
+444.6482E-03,+2.609314E-06
+439.5017E-03,+2.616938E-06
+434.6058E-03,+2.612892E-06
+429.6910E-03,+2.607747E-06
+424.5621E-03,+2.616470E-06
+419.6534E-03,+2.617358E-06
+414.5216E-03,+2.618758E-06
+409.6038E-03,+2.610372E-06
+404.7013E-03,+2.613800E-06
+399.5675E-03,+2.612779E-06
+394.6553E-03,+2.620635E-06
+389.4942E-03,+2.616049E-06
+384.6215E-03,+2.613353E-06
+379.7116E-03,+2.618380E-06
+374.5641E-03,+2.615180E-06
+369.6627E-03,+2.613968E-06
+364.5354E-03,+2.614345E-06
+359.6084E-03,+2.611869E-06
+354.7097E-03,+2.615627E-06
+349.5702E-03,+2.606197E-06
+344.6707E-03,+2.612386E-06
+339.7561E-03,+2.614636E-06
+334.6221E-03,+2.612811E-06
+329.7308E-03,+2.610946E-06
+324.5822E-03,+2.607520E-06
+319.6769E-03,+2.604778E-06
+314.7934E-03,+2.604381E-06
+309.6355E-03,+2.604034E-06
+304.7415E-03,+2.599864E-06
+299.6115E-03,+2.607382E-06
+294.6963E-03,+2.601258E-06
+289.8090E-03,+2.604062E-06
+284.6758E-03,+2.600383E-06
+279.7433E-03,+2.597969E-06
+274.5987E-03,+2.597845E-06
+269.7089E-03,+2.592554E-06
+264.8036E-03,+2.597298E-06
+259.6611E-03,+2.589833E-06
+254.7890E-03,+2.583961E-06
+249.8585E-03,+2.581781E-06
+244.7256E-03,+2.581553E-06
+239.8337E-03,+2.576709E-06
+234.6592E-03,+2.575006E-06
+229.7722E-03,+2.566412E-06
+224.8908E-03,+2.564317E-06
+219.7349E-03,+2.560983E-06
+214.8235E-03,+2.552428E-06
+209.6900E-03,+2.550025E-06
+204.7773E-03,+2.538693E-06
+199.8864E-03,+2.539664E-06
+194.7499E-03,+2.525862E-06
+189.8627E-03,+2.520322E-06
+184.6957E-03,+2.518571E-06
+179.8204E-03,+2.495957E-06
+174.9116E-03,+2.488547E-06
+169.7481E-03,+2.474561E-06
+164.8692E-03,+2.465387E-06
+159.7319E-03,+2.456526E-06
+154.8046E-03,+2.422732E-06
+149.9091E-03,+2.413379E-06
+144.7704E-03,+2.396075E-06
+139.8658E-03,+2.371727E-06
+134.9680E-03,+2.337404E-06
+129.8332E-03,+2.302903E-06
+124.9270E-03,+2.282233E-06
+119.7898E-03,+2.243277E-06
+114.9251E-03,+2.210592E-06
+109.9492E-03,+2.170476E-06
+104.8371E-03,+2.134688E-06
+99.93974E-03,+2.083745E-06
+94.80274E-03,+2.026831E-06
+89.89068E-03,+1.966519E-06
+85.00394E-03,+1.906278E-06
+79.86367E-03,+1.840142E-06
+74.95765E-03,+1.766005E-06
+69.80936E-03,+1.688623E-06
+64.90573E-03,+1.608418E-06
+60.04124E-03,+1.529213E-06
+54.86012E-03,+1.440857E-06
+49.95928E-03,+1.351857E-06
+45.06716E-03,+1.245162E-06
+39.93727E-03,+1.121972E-06
+35.02639E-03,+1.027704E-06
+29.86544E-03,+920.2344E-09
+24.98215E-03,+798.5680E-09
+20.07777E-03,+679.8973E-09
+14.93531E-03,+552.3924E-09
+10.05510E-03,+404.5785E-09
+4.921303E-03,+271.6963E-09
+14.73605E-06,+134.2643E-09
-4.873481E-03,-11.01828E-09
-9.998732E-03,-171.0403E-09
-14.90455E-03,-334.5650E-09
-20.05621E-03,-468.9734E-09
-24.94285E-03,-604.2564E-09
-29.85951E-03,-756.2128E-09
-35.01677E-03,-887.2571E-09
-39.89294E-03,-1.002052E-06
-45.01727E-03,-1.140675E-06
-49.94411E-03,-1.254363E-06
-54.82457E-03,-1.346454E-06
-59.98321E-03,-1.459879E-06
-64.86782E-03,-1.552582E-06
-69.78475E-03,-1.626937E-06
-74.92249E-03,-1.716061E-06
-79.81011E-03,-1.816813E-06
-84.96225E-03,-1.862842E-06
-89.86940E-03,-1.930827E-06
-94.76860E-03,-1.978757E-06
-99.90902E-03,-2.048664E-06
-104.8164E-03,-2.084508E-06
-109.9774E-03,-2.162434E-06
-114.8686E-03,-2.201458E-06
-119.7036E-03,-2.226883E-06
-124.8656E-03,-2.269392E-06
-129.7882E-03,-2.315747E-06
-134.9274E-03,-2.333949E-06
-139.8284E-03,-2.360987E-06
-144.7259E-03,-2.369923E-06
-149.8723E-03,-2.410260E-06
-154.7708E-03,-2.431710E-06
-159.6938E-03,-2.441392E-06
-164.8185E-03,-2.450582E-06
-169.7133E-03,-2.464939E-06
-174.8700E-03,-2.471183E-06
-179.7490E-03,-2.494913E-06
-184.6642E-03,-2.510626E-06
-189.8103E-03,-2.508183E-06
-194.6861E-03,-2.529938E-06
-199.8257E-03,-2.522402E-06
-204.7623E-03,-2.533404E-06
-209.6395E-03,-2.541579E-06
-214.7767E-03,-2.548500E-06
-219.6836E-03,-2.548222E-06
-224.8279E-03,-2.564397E-06
-229.7247E-03,-2.568309E-06
-234.6241E-03,-2.577648E-06
-239.7845E-03,-2.559275E-06
-244.6683E-03,-2.569210E-06
-249.8040E-03,-2.582789E-06
-254.7066E-03,-2.576704E-06
-259.5513E-03,-2.576219E-06
-264.7584E-03,-2.575931E-06
-269.6549E-03,-2.594316E-06
-274.5485E-03,-2.594622E-06
-279.6966E-03,-2.606469E-06
-284.5907E-03,-2.599659E-06
-289.7488E-03,-2.592337E-06
-294.6303E-03,-2.589926E-06
-299.5458E-03,-2.610219E-06
-304.6655E-03,-2.596553E-06
-309.5904E-03,-2.604436E-06
-314.7818E-03,-2.607830E-06
-319.6295E-03,-2.605075E-06
-324.5129E-03,-2.605969E-06
-329.6519E-03,-2.605726E-06
-334.5481E-03,-2.605849E-06
-339.6860E-03,-2.610609E-06
-344.5962E-03,-2.608196E-06
-349.5008E-03,-2.607567E-06
-354.6012E-03,-2.613485E-06
-359.5378E-03,-2.610660E-06
-364.4537E-03,-2.612609E-06
-369.6026E-03,-2.601202E-06
-374.4451E-03,-2.598362E-06
-379.6477E-03,-2.615136E-06
-384.5449E-03,-2.612824E-06
-389.4284E-03,-2.610811E-06
-394.5818E-03,-2.609808E-06
-399.4641E-03,-2.608030E-06
-404.5981E-03,-2.608507E-06
-409.5189E-03,-2.616696E-06
-414.4052E-03,-2.613844E-06
-419.5421E-03,-2.603128E-06
-424.4455E-03,-2.605616E-06
-429.5816E-03,-2.609821E-06
-434.4840E-03,-2.606708E-06
-439.3853E-03,-2.609772E-06
-444.5265E-03,-2.599065E-06
-449.4201E-03,-2.605569E-06
-454.3188E-03,-2.609165E-06
-459.4541E-03,-2.610460E-06
-464.3595E-03,-2.606187E-06
-469.4992E-03,-2.609236E-06
-474.4002E-03,-2.600701E-06
-479.3034E-03,-2.606493E-06
-484.4415E-03,-2.607438E-06
-489.3655E-03,-2.601654E-06
-494.4697E-03,-2.605575E-06
-499.4798E-03,-2.605067E-06

-499.4672E-03,-2.603956E-06
-494.7275E-03,-2.603427E-06
-489.6291E-03,-2.602904E-06
-484.7159E-03,-2.605299E-06
-479.5977E-03,-2.610089E-06
-474.6915E-03,-2.605789E-06
-469.7655E-03,-2.611127E-06
-464.6175E-03,-2.611861E-06
-459.7169E-03,-2.609430E-06
-454.5626E-03,-2.610989E-06
-449.6544E-03,-2.614371E-06
-444.7640E-03,-2.614205E-06
-439.6089E-03,-2.612172E-06
-434.7261E-03,-2.611463E-06
-429.7970E-03,-2.616169E-06
-424.6587E-03,-2.608058E-06
-419.7452E-03,-2.613631E-06
-414.6267E-03,-2.610586E-06
-409.7148E-03,-2.610303E-06
-404.7990E-03,-2.609183E-06
-399.6689E-03,-2.610484E-06
-394.7808E-03,-2.616024E-06
-389.6210E-03,-2.614379E-06
-384.7378E-03,-2.608589E-06
-379.8150E-03,-2.607466E-06
-374.6666E-03,-2.612750E-06
-369.7741E-03,-2.609537E-06
-364.6391E-03,-2.613239E-06
-359.7128E-03,-2.605918E-06
-354.8321E-03,-2.612914E-06
-349.6817E-03,-2.607895E-06
-344.7609E-03,-2.609191E-06
-339.8599E-03,-2.609968E-06
-334.7417E-03,-2.609069E-06
-329.8222E-03,-2.609570E-06
-324.6877E-03,-2.605313E-06
-319.7839E-03,-2.606249E-06
-314.8917E-03,-2.609759E-06
-309.7455E-03,-2.603388E-06
-304.8503E-03,-2.608804E-06
-299.7149E-03,-2.597268E-06
-294.7783E-03,-2.594410E-06
-289.9062E-03,-2.597318E-06
-284.7833E-03,-2.595754E-06
-279.8576E-03,-2.593018E-06
-274.7079E-03,-2.589453E-06
-269.8210E-03,-2.589651E-06
-264.9089E-03,-2.584093E-06
-259.7660E-03,-2.579559E-06
-254.8718E-03,-2.581494E-06
-249.9705E-03,-2.580432E-06
-244.8353E-03,-2.581516E-06
-239.9357E-03,-2.570299E-06
-234.7824E-03,-2.562048E-06
-229.8773E-03,-2.566018E-06
-224.9782E-03,-2.561341E-06
-219.8307E-03,-2.549657E-06
-214.9210E-03,-2.553240E-06
-209.7917E-03,-2.546450E-06
-204.9024E-03,-2.538387E-06
-199.9798E-03,-2.529953E-06
-194.8456E-03,-2.526005E-06
-189.9519E-03,-2.519759E-06
-184.8076E-03,-2.503786E-06
-179.9142E-03,-2.494216E-06
-175.0110E-03,-2.483151E-06
-169.8587E-03,-2.466331E-06
-164.9707E-03,-2.458670E-06
-159.8135E-03,-2.436768E-06
-154.9050E-03,-2.413306E-06
-150.0034E-03,-2.409002E-06
-144.8708E-03,-2.385914E-06
-139.9706E-03,-2.355256E-06
-135.0810E-03,-2.335094E-06
-129.9208E-03,-2.316395E-06
-125.0106E-03,-2.280641E-06
-119.8746E-03,-2.247320E-06
-114.9845E-03,-2.212357E-06
-110.0931E-03,-2.178686E-06
-104.9410E-03,-2.125634E-06
-100.0388E-03,-2.072657E-06
-94.90633E-03,-2.028594E-06
-89.99059E-03,-1.961604E-06
-85.08534E-03,-1.901388E-06
-79.96348E-03,-1.833140E-06
-75.06091E-03,-1.760064E-06
-69.90155E-03,-1.683979E-06
-65.00512E-03,-1.609333E-06
-60.11685E-03,-1.523891E-06
-54.96648E-03,-1.436705E-06
-50.07469E-03,-1.337713E-06
-45.17456E-03,-1.241088E-06
-40.03655E-03,-1.141485E-06
-35.14128E-03,-1.021354E-06
-29.97355E-03,-907.8421E-09
-25.07929E-03,-798.5545E-09
-20.18024E-03,-671.4644E-09
-15.02914E-03,-531.2093E-09
-10.14308E-03,-402.6501E-09
-4.999496E-03,-270.2115E-09
-128.7217E-06,-139.3629E-09
+4.789865E-03,+22.25364E-09
+9.906989E-03,+170.5658E-09
+14.78929E-03,+316.3510E-09
+19.95928E-03,+484.4868E-09
+24.84461E-03,+630.9753E-09
+29.74026E-03,+756.8962E-09
+34.90441E-03,+893.9069E-09
+39.79364E-03,+1.014541E-06
+44.92867E-03,+1.153559E-06
+49.83455E-03,+1.253203E-06
+54.74301E-03,+1.359217E-06
+59.87824E-03,+1.470995E-06
+64.78066E-03,+1.577056E-06
+69.67782E-03,+1.639895E-06
+74.80637E-03,+1.740231E-06
+79.74637E-03,+1.812113E-06
+84.87151E-03,+1.876577E-06
+89.76793E-03,+1.941239E-06
+94.66803E-03,+1.980963E-06
+99.80790E-03,+2.064285E-06
+104.7084E-03,+2.109463E-06
+109.8591E-03,+2.152626E-06
+114.7531E-03,+2.207265E-06
+119.6452E-03,+2.233313E-06
+124.7882E-03,+2.273769E-06
+129.6847E-03,+2.278766E-06
+134.8220E-03,+2.334979E-06
+139.7344E-03,+2.358728E-06
+144.6372E-03,+2.388907E-06
+149.7568E-03,+2.414430E-06
+154.6536E-03,+2.428077E-06
+159.5915E-03,+2.443476E-06
+164.7172E-03,+2.467942E-06
+169.6057E-03,+2.470586E-06
+174.7578E-03,+2.466645E-06
+179.6624E-03,+2.495456E-06
+184.5453E-03,+2.494843E-06
+189.7025E-03,+2.499959E-06
+194.6023E-03,+2.527929E-06
+199.7280E-03,+2.540120E-06
+204.6326E-03,+2.532203E-06
+209.5293E-03,+2.544150E-06
+214.6741E-03,+2.551599E-06
+219.5726E-03,+2.545202E-06
+224.7258E-03,+2.565783E-06
+229.6301E-03,+2.552972E-06
+234.5158E-03,+2.572004E-06
+239.6615E-03,+2.577783E-06
+244.5770E-03,+2.581848E-06
+249.7154E-03,+2.570308E-06
+254.6112E-03,+2.583619E-06
+259.4939E-03,+2.599468E-06
+264.6546E-03,+2.579412E-06
+269.5383E-03,+2.585980E-06
+274.4427E-03,+2.598480E-06
+279.5818E-03,+2.590016E-06
+284.5004E-03,+2.605641E-06
+289.6461E-03,+2.592465E-06
+294.5313E-03,+2.616115E-06
+299.4356E-03,+2.598163E-06
+304.5706E-03,+2.608782E-06
+309.4724E-03,+2.608586E-06
+314.6155E-03,+2.606786E-06
+319.5052E-03,+2.606010E-06
+324.4118E-03,+2.601997E-06
+329.5533E-03,+2.617939E-06
+334.4476E-03,+2.614314E-06
+339.5799E-03,+2.603800E-06
+344.4877E-03,+2.616814E-06
+349.3929E-03,+2.616105E-06
+354.5308E-03,+2.608235E-06
+359.4343E-03,+2.607964E-06
+364.3381E-03,+2.615061E-06
+369.4764E-03,+2.616493E-06
+374.3746E-03,+2.608567E-06
+379.5176E-03,+2.618170E-06
+384.4141E-03,+2.607808E-06
+389.3147E-03,+2.616493E-06
+394.4552E-03,+2.604369E-06
+399.3686E-03,+2.623111E-06
+404.5039E-03,+2.612639E-06
+409.3949E-03,+2.614416E-06
+414.3038E-03,+2.617899E-06
+419.4329E-03,+2.610887E-06
+424.3298E-03,+2.620292E-06
+429.4734E-03,+2.609553E-06
+434.3692E-03,+2.612804E-06
+439.2726E-03,+2.608764E-06
+444.4228E-03,+2.609607E-06
+449.3027E-03,+2.607284E-06
+454.2002E-03,+2.616222E-06
+459.3474E-03,+2.612858E-06
+464.2354E-03,+2.608291E-06
+469.3832E-03,+2.610245E-06
+474.2782E-03,+2.619361E-06
+479.1859E-03,+2.612275E-06
+484.3206E-03,+2.610434E-06
+489.2336E-03,+2.607785E-06
+494.3758E-03,+2.605892E-06
+499.3563E-03,+2.602327E-06

MicroMag 2900/3900 Data File ends
