MicroMag 2900/3900 Data File (Series 0016.002)
Direct moment vs. field; Hysteresis loop

INSTRUMENT
Configuration                   VSM
Temperature control             None
Hardware version                0004
Software version                06/08/2012
Units of measure                Hybrid SI
Temperature in                  Kelvin

SAMPLE
Mass                            N/A
Volume                          N/A
Demagnetizing factor            N/A

SETTINGS
Field range                    +1.000000E+00
Field (command)                 N/A
Moment range                   +5.000000E-06
Averaging time                 +200.0000E-03
Temperature (command)           N/A
Tmprtr difference correction    No
Orientation                     0.000000E+00
Vibration amplitude             1.0
Calibration factor             +3.570920E+00
Operating frequency            +83.00000E+00
Sweep mode                      Continuous
Pause after sweep increment    +300.0000E-03

MEASUREMENT
Description                    "DQ15-33B1"
Field (measured)                N/A
Temperature (measured)          N/A
Averages (completed)            1
Measured on                     10/29/2016  14:16
Elapsed time                   +84.28756E+00

PROCESSING
Background subtraction          No
Delta-m processing              N/A
Demagnetizing factor            No
Normalization                   No
Normalization factor            N/A
Offset (field)                  No
Offset (moment)                 No
Pole saturation                 No
Slope correction                No

VIEWPORT
Left                           -500.0000E-03
Right                          +500.0000E-03
Bottom                         -5.000000E-06
Top                            +5.000000E-06
Show X-axis?                    Yes
Show Y-axis?                    Yes

CHARACTERIZATION
Initial slope                   N/A
Saturation                     +2.609684E-06
Remanence                      +121.5261E-09
Coercivity                     +4.771026E-03
S*                             +216.0352E-03

SCRIPT
Averages (target)               1
Averaging time                 +200.0000E-03
Demagnetize?                    No
Maximum field                  +500.0000E-03
Field increment                +5.000000E-03
Hysteresis loop?                Yes
Initial magnetization?          No
Pause                          +1.000000E+00
Saturate before measuring?      No
Number of segments              2
Number of data                  402

Segment   Averaging      Initial        Field         Final                    Final 
 Number      Time         Field       Increment       Field         Pause      Index 
             (s)           (T)           (T)           (T)           (s)     
0000001,+200.0000E-03,+500.0000E-03,+5.000000E-03,-500.0000E-03,+1.000000E+00,0000201
0000002,+200.0000E-03,-500.0000E-03,+5.000000E-03,+500.0000E-03,+1.000000E+00,0000402

                           
    Field         Moment   
     (T)          (Am²)    
+499.3654E-03,+2.607641E-06
+494.7366E-03,+2.608583E-06
+489.8589E-03,+2.617587E-06
+484.6645E-03,+2.614189E-06
+479.4780E-03,+2.612053E-06
+476.3051E-03,+2.612956E-06
+470.0570E-03,+2.619118E-06
+464.7613E-03,+2.612865E-06
+459.9212E-03,+2.615366E-06
+454.4849E-03,+2.615180E-06
+449.7722E-03,+2.614911E-06
+444.7519E-03,+2.616619E-06
+439.8078E-03,+2.618208E-06
+434.7070E-03,+2.615242E-06
+429.7079E-03,+2.622725E-06
+424.7562E-03,+2.617503E-06
+419.7584E-03,+2.620330E-06
+414.7563E-03,+2.623001E-06
+409.7338E-03,+2.618617E-06
+404.6977E-03,+2.614374E-06
+399.7521E-03,+2.616381E-06
+394.7511E-03,+2.623490E-06
+389.7313E-03,+2.623774E-06
+384.7406E-03,+2.620605E-06
+379.8156E-03,+2.621193E-06
+374.7665E-03,+2.620626E-06
+369.7732E-03,+2.621703E-06
+364.7703E-03,+2.621449E-06
+359.7676E-03,+2.629066E-06
+354.7652E-03,+2.609087E-06
+349.7987E-03,+2.618382E-06
+344.7901E-03,+2.614973E-06
+339.7624E-03,+2.623956E-06
+334.7704E-03,+2.625143E-06
+329.8028E-03,+2.607530E-06
+324.7913E-03,+2.608960E-06
+319.7756E-03,+2.613118E-06
+314.7928E-03,+2.623062E-06
+309.7923E-03,+2.616537E-06
+304.7994E-03,+2.610092E-06
+299.7999E-03,+2.605979E-06
+294.8302E-03,+2.619852E-06
+289.7796E-03,+2.603322E-06
+284.8170E-03,+2.597081E-06
+279.8176E-03,+2.601399E-06
+274.8234E-03,+2.593252E-06
+269.8380E-03,+2.598441E-06
+264.8733E-03,+2.593524E-06
+259.8430E-03,+2.579144E-06
+254.8496E-03,+2.592742E-06
+249.8266E-03,+2.593925E-06
+244.8555E-03,+2.592386E-06
+239.9744E-03,+2.561126E-06
+234.8569E-03,+2.570687E-06
+229.9330E-03,+2.559915E-06
+224.8655E-03,+2.581469E-06
+219.8496E-03,+2.565929E-06
+214.8977E-03,+2.552807E-06
+209.8774E-03,+2.544864E-06
+204.8499E-03,+2.552404E-06
+199.9038E-03,+2.550849E-06
+194.8925E-03,+2.541960E-06
+189.8999E-03,+2.535314E-06
+184.9005E-03,+2.513977E-06
+179.8800E-03,+2.520111E-06
+174.8356E-03,+2.487203E-06
+169.9165E-03,+2.470209E-06
+164.9098E-03,+2.488832E-06
+159.9050E-03,+2.453511E-06
+154.9346E-03,+2.448880E-06
+149.9453E-03,+2.406322E-06
+145.0798E-03,+2.393764E-06
+139.8726E-03,+2.390513E-06
+134.9209E-03,+2.360650E-06
+129.9310E-03,+2.306139E-06
+124.9577E-03,+2.293805E-06
+119.9782E-03,+2.267052E-06
+114.9665E-03,+2.183311E-06
+109.9440E-03,+2.168859E-06
+104.9680E-03,+2.165038E-06
+99.96602E-03,+2.106162E-06
+94.98197E-03,+2.031868E-06
+89.94476E-03,+1.943434E-06
+84.97503E-03,+1.897314E-06
+79.98341E-03,+1.821870E-06
+75.00780E-03,+1.755040E-06
+70.04160E-03,+1.698424E-06
+65.00299E-03,+1.621418E-06
+59.92245E-03,+1.507375E-06
+55.01162E-03,+1.412179E-06
+50.01107E-03,+1.330177E-06
+45.01024E-03,+1.244220E-06
+40.02822E-03,+1.176994E-06
+35.07094E-03,+1.014691E-06
+30.02515E-03,+954.1276E-09
+25.05114E-03,+779.8549E-09
+20.06498E-03,+675.9331E-09
+15.04481E-03,+521.2272E-09
+10.05328E-03,+434.3292E-09
+5.073264E-03,+285.0746E-09
+76.58068E-06,+136.0866E-09
-4.903533E-03,+21.18808E-09
-9.880167E-03,-197.3416E-09
-14.90197E-03,-323.8822E-09
-19.87778E-03,-460.3276E-09
-24.91035E-03,-621.2985E-09
-29.86788E-03,-768.2524E-09
-34.85624E-03,-928.3853E-09
-39.87531E-03,-1.012811E-06
-44.84938E-03,-1.144354E-06
-49.77580E-03,-1.249756E-06
-54.86064E-03,-1.352310E-06
-59.83254E-03,-1.459437E-06
-64.82726E-03,-1.595017E-06
-69.80911E-03,-1.620170E-06
-74.81708E-03,-1.773769E-06
-79.80737E-03,-1.764967E-06
-84.78627E-03,-1.883446E-06
-89.80213E-03,-1.955548E-06
-94.78159E-03,-2.070060E-06
-99.80724E-03,-2.087597E-06
-104.7755E-03,-2.146949E-06
-109.7896E-03,-2.197007E-06
-114.7772E-03,-2.279418E-06
-119.7393E-03,-2.209358E-06
-124.7418E-03,-2.237541E-06
-129.7571E-03,-2.308953E-06
-134.7061E-03,-2.298980E-06
-139.8037E-03,-2.282880E-06
-144.7401E-03,-2.400020E-06
-149.7118E-03,-2.385967E-06
-154.7804E-03,-2.421207E-06
-159.7038E-03,-2.429940E-06
-164.6844E-03,-2.487663E-06
-169.7733E-03,-2.501507E-06
-174.6892E-03,-2.482551E-06
-179.6879E-03,-2.468947E-06
-184.6818E-03,-2.501595E-06
-189.7015E-03,-2.551667E-06
-194.6084E-03,-2.511443E-06
-199.6571E-03,-2.524723E-06
-204.6579E-03,-2.537517E-06
-209.6392E-03,-2.517080E-06
-214.6387E-03,-2.572444E-06
-219.6553E-03,-2.576036E-06
-224.6120E-03,-2.553749E-06
-229.6227E-03,-2.542866E-06
-234.6295E-03,-2.533957E-06
-239.6378E-03,-2.553756E-06
-244.6020E-03,-2.599144E-06
-249.5903E-03,-2.561397E-06
-254.6050E-03,-2.581508E-06
-259.5985E-03,-2.593836E-06
-264.5865E-03,-2.603211E-06
-269.5731E-03,-2.584128E-06
-274.5556E-03,-2.604802E-06
-279.5118E-03,-2.591778E-06
-284.5677E-03,-2.600295E-06
-289.5632E-03,-2.616664E-06
-294.5564E-03,-2.611013E-06
-299.5336E-03,-2.603422E-06
-304.5248E-03,-2.616051E-06
-309.4996E-03,-2.619022E-06
-314.5326E-03,-2.617300E-06
-319.5240E-03,-2.620009E-06
-324.4922E-03,-2.596690E-06
-329.4954E-03,-2.650669E-06
-334.4854E-03,-2.614340E-06
-339.4653E-03,-2.587559E-06
-344.4854E-03,-2.592829E-06
-349.4719E-03,-2.593840E-06
-354.4548E-03,-2.600785E-06
-359.4556E-03,-2.603106E-06
-364.4511E-03,-2.625133E-06
-369.5291E-03,-2.615918E-06
-374.4457E-03,-2.601854E-06
-379.4138E-03,-2.596103E-06
-384.3849E-03,-2.594717E-06
-389.4647E-03,-2.621814E-06
-394.3604E-03,-2.600333E-06
-399.4143E-03,-2.624347E-06
-404.3838E-03,-2.627819E-06
-409.3676E-03,-2.604367E-06
-414.3919E-03,-2.608600E-06
-419.3445E-03,-2.615906E-06
-424.3433E-03,-2.612097E-06
-429.3460E-03,-2.604083E-06
-434.3174E-03,-2.611121E-06
-439.3308E-03,-2.614019E-06
-444.3375E-03,-2.618553E-06
-449.3151E-03,-2.622662E-06
-454.3257E-03,-2.609675E-06
-459.3092E-03,-2.617095E-06
-464.2833E-03,-2.611552E-06
-469.2878E-03,-2.606719E-06
-474.2604E-03,-2.611016E-06
-479.2854E-03,-2.607824E-06
-484.3107E-03,-2.600824E-06
-489.2745E-03,-2.600156E-06
-494.2436E-03,-2.612303E-06
-499.4629E-03,-2.605346E-06

-499.4734E-03,-2.609185E-06
-494.7329E-03,-2.610071E-06
-489.7946E-03,-2.608189E-06
-484.8234E-03,-2.609118E-06
-479.8755E-03,-2.610725E-06
-474.8824E-03,-2.611198E-06
-469.8750E-03,-2.607613E-06
-464.8704E-03,-2.614149E-06
-459.8581E-03,-2.616268E-06
-454.8647E-03,-2.615694E-06
-449.8352E-03,-2.613117E-06
-444.8471E-03,-2.613514E-06
-439.8415E-03,-2.611655E-06
-434.8422E-03,-2.611798E-06
-429.8404E-03,-2.612722E-06
-424.8551E-03,-2.618782E-06
-419.8073E-03,-2.620717E-06
-414.8457E-03,-2.615756E-06
-409.8416E-03,-2.615100E-06
-404.8450E-03,-2.623211E-06
-399.8592E-03,-2.621770E-06
-394.8948E-03,-2.616812E-06
-389.8793E-03,-2.614698E-06
-384.8545E-03,-2.623445E-06
-379.8689E-03,-2.630350E-06
-374.8622E-03,-2.611552E-06
-369.8880E-03,-2.611357E-06
-364.8364E-03,-2.607678E-06
-359.8425E-03,-2.619102E-06
-354.8619E-03,-2.619956E-06
-349.8881E-03,-2.613578E-06
-344.8697E-03,-2.605645E-06
-339.8874E-03,-2.622407E-06
-334.8212E-03,-2.609595E-06
-329.8702E-03,-2.611642E-06
-324.8739E-03,-2.613474E-06
-319.8978E-03,-2.616461E-06
-314.9022E-03,-2.613252E-06
-309.9194E-03,-2.599611E-06
-304.9026E-03,-2.600886E-06
-299.9305E-03,-2.606731E-06
-294.9252E-03,-2.595208E-06
-289.9365E-03,-2.601425E-06
-284.9016E-03,-2.602043E-06
-279.9112E-03,-2.588514E-06
-274.9318E-03,-2.592886E-06
-269.9360E-03,-2.593951E-06
-264.9663E-03,-2.592657E-06
-259.9328E-03,-2.594385E-06
-254.9463E-03,-2.592885E-06
-249.9426E-03,-2.574616E-06
-244.9641E-03,-2.572348E-06
-239.9560E-03,-2.573202E-06
-234.9575E-03,-2.579205E-06
-229.9547E-03,-2.580944E-06
-224.9730E-03,-2.557750E-06
-219.9112E-03,-2.569482E-06
-214.9794E-03,-2.555700E-06
-209.9572E-03,-2.560955E-06
-204.9728E-03,-2.554602E-06
-199.9763E-03,-2.536182E-06
-194.9929E-03,-2.529168E-06
-190.0013E-03,-2.518833E-06
-185.0008E-03,-2.526666E-06
-180.0046E-03,-2.478762E-06
-174.7883E-03,-2.486622E-06
-170.0173E-03,-2.470630E-06
-165.1257E-03,-2.468194E-06
-159.8224E-03,-2.427994E-06
-155.3290E-03,-2.443094E-06
-149.7699E-03,-2.398527E-06
-144.9974E-03,-2.377450E-06
-140.0230E-03,-2.357109E-06
-135.0345E-03,-2.305068E-06
-130.0187E-03,-2.290003E-06
-125.0480E-03,-2.289457E-06
-120.0539E-03,-2.270664E-06
-115.0669E-03,-2.215215E-06
-110.0716E-03,-2.165751E-06
-105.0656E-03,-2.107411E-06
-100.0419E-03,-2.087501E-06
-95.00818E-03,-2.028848E-06
-90.07660E-03,-1.982355E-06
-85.08325E-03,-1.921296E-06
-80.09931E-03,-1.787392E-06
-75.11079E-03,-1.753304E-06
-70.06854E-03,-1.699700E-06
-65.15180E-03,-1.572298E-06
-60.08125E-03,-1.468903E-06
-55.13004E-03,-1.431179E-06
-50.11811E-03,-1.351785E-06
-45.17626E-03,-1.203641E-06
-40.15421E-03,-1.104602E-06
-35.13708E-03,-1.008578E-06
-30.15179E-03,-938.4075E-09
-25.13364E-03,-827.2578E-09
-20.18528E-03,-674.5811E-09
-15.16415E-03,-513.2553E-09
-10.16640E-03,-376.6284E-09
-5.197851E-03,-242.6547E-09
-150.6560E-06,-112.6740E-09
+4.790449E-03,+16.59899E-09
+9.795724E-03,+207.7233E-09
+14.78107E-03,+395.4721E-09
+19.75519E-03,+486.2050E-09
+24.75496E-03,+674.0943E-09
+29.75873E-03,+790.8199E-09
+34.74010E-03,+896.6175E-09
+39.74270E-03,+1.018521E-06
+44.79301E-03,+1.170732E-06
+49.72349E-03,+1.266084E-06
+54.73045E-03,+1.354206E-06
+59.72338E-03,+1.453205E-06
+64.76524E-03,+1.538999E-06
+69.66676E-03,+1.624455E-06
+74.66525E-03,+1.749210E-06
+79.69981E-03,+1.827666E-06
+84.69312E-03,+1.916338E-06
+89.68865E-03,+1.871591E-06
+94.67490E-03,+2.046002E-06
+99.65676E-03,+2.092432E-06
+104.6568E-03,+2.131894E-06
+109.5850E-03,+2.166322E-06
+114.6178E-03,+2.214890E-06
+119.6112E-03,+2.210807E-06
+124.6410E-03,+2.287790E-06
+129.6198E-03,+2.298553E-06
+134.6916E-03,+2.313504E-06
+139.5732E-03,+2.373833E-06
+144.5003E-03,+2.352101E-06
+149.5460E-03,+2.423606E-06
+154.5516E-03,+2.468783E-06
+159.5515E-03,+2.417245E-06
+164.4763E-03,+2.440375E-06
+169.4683E-03,+2.477934E-06
+174.5718E-03,+2.498885E-06
+179.5483E-03,+2.466959E-06
+184.6172E-03,+2.495580E-06
+189.5676E-03,+2.528702E-06
+194.6400E-03,+2.515589E-06
+199.5374E-03,+2.500232E-06
+204.5238E-03,+2.527825E-06
+209.6218E-03,+2.546141E-06
+214.2177E-03,+2.549143E-06
+219.5778E-03,+2.542620E-06
+224.4805E-03,+2.568077E-06
+228.8424E-03,+2.555806E-06
+234.5462E-03,+2.569508E-06
+239.7934E-03,+2.576234E-06
+244.7585E-03,+2.599732E-06
+249.1708E-03,+2.559713E-06
+254.4733E-03,+2.594248E-06
+259.4941E-03,+2.575629E-06
+264.0510E-03,+2.623910E-06
+269.5587E-03,+2.564608E-06
+274.3579E-03,+2.634548E-06
+279.5085E-03,+2.640079E-06
+284.4810E-03,+2.618742E-06
+289.5435E-03,+2.628225E-06
+294.3580E-03,+2.597886E-06
+299.4321E-03,+2.602509E-06
+304.2884E-03,+2.613333E-06
+309.4717E-03,+2.610743E-06
+314.3342E-03,+2.638855E-06
+319.3507E-03,+2.619444E-06
+324.2716E-03,+2.609906E-06
+329.3474E-03,+2.583624E-06
+334.4083E-03,+2.629622E-06
+339.3632E-03,+2.618984E-06
+344.3525E-03,+2.626946E-06
+349.4055E-03,+2.610112E-06
+354.3800E-03,+2.596415E-06
+359.4247E-03,+2.611565E-06
+364.3830E-03,+2.610214E-06
+369.2935E-03,+2.622853E-06
+374.2769E-03,+2.613737E-06
+379.2891E-03,+2.615321E-06
+384.1993E-03,+2.617340E-06
+389.3042E-03,+2.625773E-06
+394.3556E-03,+2.619784E-06
+399.1295E-03,+2.639354E-06
+404.1618E-03,+2.625611E-06
+409.3380E-03,+2.618440E-06
+414.2703E-03,+2.623672E-06
+419.2567E-03,+2.612296E-06
+424.3504E-03,+2.626824E-06
+429.2113E-03,+2.612817E-06
+434.1938E-03,+2.618021E-06
+439.3458E-03,+2.624136E-06
+444.2129E-03,+2.606513E-06
+449.1873E-03,+2.622013E-06
+454.1826E-03,+2.614888E-06
+459.1978E-03,+2.618348E-06
+464.1804E-03,+2.613648E-06
+469.1731E-03,+2.617273E-06
+474.1676E-03,+2.614051E-06
+479.1928E-03,+2.616286E-06
+484.1427E-03,+2.619540E-06
+489.1688E-03,+2.612767E-06
+494.1258E-03,+2.615583E-06
+499.3612E-03,+2.612227E-06

MicroMag 2900/3900 Data File ends
