MicroMag 2900/3900 Data File (Series 0016.002)
Direct moment vs. field; Hysteresis loop

INSTRUMENT
Configuration                   VSM
Temperature control             None
Hardware version                0004
Software version                06/08/2012
Units of measure                Hybrid SI
Temperature in                  Kelvin

SAMPLE
Mass                            N/A
Volume                          N/A
Demagnetizing factor            N/A

SETTINGS
Field range                    +1.000000E+00
Field (command)                 N/A
Moment range                   +5.000000E-06
Averaging time                 +100.0000E-03
Temperature (command)           N/A
Tmprtr difference correction    No
Orientation                     0.000000E+00
Vibration amplitude             1.0
Calibration factor             +3.570920E+00
Operating frequency            +83.00000E+00
Sweep mode                      Discrete
Pause after sweep increment    +300.0000E-03

MEASUREMENT
Description                    "DQ15-33B1"
Field (measured)                N/A
Temperature (measured)          N/A
Averages (completed)            1
Measured on                     10/29/2016  13:59
Elapsed time                   +166.8077E+00

PROCESSING
Background subtraction          No
Delta-m processing              N/A
Demagnetizing factor            No
Normalization                   No
Normalization factor            N/A
Offset (field)                  No
Offset (moment)                 No
Pole saturation                 No
Slope correction                No

VIEWPORT
Left                           -500.0000E-03
Right                          +500.0000E-03
Bottom                         -5.000000E-06
Top                            +5.000000E-06
Show X-axis?                    Yes
Show Y-axis?                    Yes

CHARACTERIZATION
Initial slope                   N/A
Saturation                     +2.607767E-06
Remanence                      +120.6730E-09
Coercivity                     +4.149425E-03
S*                             +2.166525E-03

SCRIPT
Averages (target)               1
Averaging time                 +100.0000E-03
Demagnetize?                    No
Maximum field                  +500.0000E-03
Field increment                +5.000000E-03
Hysteresis loop?                Yes
Initial magnetization?          No
Pause                          +1.000000E+00
Saturate before measuring?      No
Number of segments              2
Number of data                  402

Segment   Averaging      Initial        Field         Final                    Final 
 Number      Time         Field       Increment       Field         Pause      Index 
             (s)           (T)           (T)           (T)           (s)     
0000001,+100.0000E-03,+500.0000E-03,+5.000000E-03,-500.0000E-03,+1.000000E+00,0000201
0000002,+100.0000E-03,-500.0000E-03,+5.000000E-03,+500.0000E-03,+1.000000E+00,0000402

                           
    Field         Moment   
     (T)          (Am²)    
+499.3733E-03,+2.609606E-06
+494.5990E-03,+2.608918E-06
+489.5075E-03,+2.611497E-06
+484.5996E-03,+2.608531E-06
+479.4489E-03,+2.616564E-06
+474.5473E-03,+2.614392E-06
+469.6365E-03,+2.618281E-06
+464.4979E-03,+2.615271E-06
+459.6122E-03,+2.618173E-06
+454.4633E-03,+2.614055E-06
+449.5271E-03,+2.616161E-06
+444.6561E-03,+2.617010E-06
+439.5071E-03,+2.615081E-06
+434.6012E-03,+2.616210E-06
+429.6896E-03,+2.617210E-06
+424.5636E-03,+2.616106E-06
+419.6525E-03,+2.615422E-06
+414.5068E-03,+2.616390E-06
+409.6029E-03,+2.623433E-06
+404.6953E-03,+2.615436E-06
+399.5609E-03,+2.612029E-06
+394.6479E-03,+2.619079E-06
+389.5014E-03,+2.619002E-06
+384.6020E-03,+2.617541E-06
+379.7166E-03,+2.619099E-06
+374.5571E-03,+2.613036E-06
+369.6712E-03,+2.612024E-06
+364.5260E-03,+2.615309E-06
+359.6224E-03,+2.613920E-06
+354.7158E-03,+2.618641E-06
+349.5767E-03,+2.608894E-06
+344.6617E-03,+2.609991E-06
+339.7600E-03,+2.615997E-06
+334.6260E-03,+2.612866E-06
+329.7288E-03,+2.613278E-06
+324.5939E-03,+2.610558E-06
+319.6843E-03,+2.609292E-06
+314.7832E-03,+2.608152E-06
+309.6286E-03,+2.607650E-06
+304.7491E-03,+2.597703E-06
+299.6113E-03,+2.608384E-06
+294.6975E-03,+2.606087E-06
+289.8094E-03,+2.598558E-06
+284.6754E-03,+2.601852E-06
+279.7509E-03,+2.601847E-06
+274.5945E-03,+2.599756E-06
+269.7095E-03,+2.592436E-06
+264.8074E-03,+2.589446E-06
+259.6694E-03,+2.595441E-06
+254.7686E-03,+2.591157E-06
+249.8572E-03,+2.582995E-06
+244.7213E-03,+2.581404E-06
+239.8287E-03,+2.585242E-06
+234.6735E-03,+2.574571E-06
+229.7850E-03,+2.573236E-06
+224.8620E-03,+2.566542E-06
+219.7256E-03,+2.560244E-06
+214.8320E-03,+2.552528E-06
+209.6877E-03,+2.553841E-06
+204.7838E-03,+2.540849E-06
+199.8729E-03,+2.534460E-06
+194.7528E-03,+2.528254E-06
+189.8607E-03,+2.517379E-06
+184.7035E-03,+2.513279E-06
+179.8207E-03,+2.505707E-06
+174.8988E-03,+2.486880E-06
+169.7500E-03,+2.475126E-06
+164.8650E-03,+2.470381E-06
+159.7304E-03,+2.454921E-06
+154.8087E-03,+2.433305E-06
+149.9234E-03,+2.407931E-06
+144.7711E-03,+2.396732E-06
+139.8677E-03,+2.368653E-06
+134.9629E-03,+2.348095E-06
+129.8347E-03,+2.312807E-06
+124.9325E-03,+2.284446E-06
+119.7888E-03,+2.245538E-06
+114.8837E-03,+2.206356E-06
+109.9952E-03,+2.172577E-06
+104.8302E-03,+2.131083E-06
+99.94315E-03,+2.088748E-06
+94.80429E-03,+2.023497E-06
+89.89113E-03,+1.970968E-06
+85.00468E-03,+1.919202E-06
+79.85883E-03,+1.840495E-06
+74.94970E-03,+1.762128E-06
+69.83954E-03,+1.690742E-06
+64.91389E-03,+1.609867E-06
+59.97324E-03,+1.523349E-06
+54.86112E-03,+1.436125E-06
+49.96039E-03,+1.345926E-06
+45.05276E-03,+1.245073E-06
+39.91512E-03,+1.137885E-06
+35.05110E-03,+1.034209E-06
+29.88120E-03,+909.8127E-09
+24.98150E-03,+802.9791E-09
+20.10453E-03,+683.9463E-09
+14.92987E-03,+537.7059E-09
+10.04301E-03,+418.8366E-09
+4.909776E-03,+271.0183E-09
+16.71777E-06,+128.7316E-09
-4.874085E-03,-9.275017E-09
-10.00164E-03,-167.0839E-09
-14.90473E-03,-319.7833E-09
-20.05488E-03,-472.5000E-09
-24.94232E-03,-609.7156E-09
-29.85212E-03,-761.6923E-09
-35.01360E-03,-893.7893E-09
-39.90823E-03,-1.015180E-06
-45.04012E-03,-1.154411E-06
-49.93679E-03,-1.239224E-06
-54.85082E-03,-1.342781E-06
-59.99422E-03,-1.460138E-06
-64.87589E-03,-1.550717E-06
-69.79279E-03,-1.631362E-06
-74.91998E-03,-1.741711E-06
-79.83202E-03,-1.806220E-06
-84.96657E-03,-1.870823E-06
-89.85664E-03,-1.947170E-06
-94.76984E-03,-1.989974E-06
-99.90598E-03,-2.065342E-06
-104.7998E-03,-2.109094E-06
-109.9596E-03,-2.149203E-06
-114.8578E-03,-2.194980E-06
-119.7470E-03,-2.237287E-06
-124.8801E-03,-2.266753E-06
-129.7940E-03,-2.283420E-06
-134.9284E-03,-2.340721E-06
-139.8284E-03,-2.378281E-06
-144.7397E-03,-2.392719E-06
-149.8637E-03,-2.412133E-06
-154.7718E-03,-2.426261E-06
-159.6849E-03,-2.438720E-06
-164.8154E-03,-2.451337E-06
-169.7124E-03,-2.467375E-06
-174.8648E-03,-2.477097E-06
-179.7601E-03,-2.495206E-06
-184.6601E-03,-2.504193E-06
-189.8043E-03,-2.519160E-06
-194.6985E-03,-2.521015E-06
-199.8417E-03,-2.540276E-06
-204.7418E-03,-2.531159E-06
-209.6484E-03,-2.535327E-06
-214.7771E-03,-2.546703E-06
-219.6847E-03,-2.552393E-06
-224.8316E-03,-2.568362E-06
-229.7183E-03,-2.567110E-06
-234.6355E-03,-2.575876E-06
-239.7778E-03,-2.573755E-06
-244.6672E-03,-2.592329E-06
-249.8158E-03,-2.570121E-06
-254.6984E-03,-2.599203E-06
-259.5806E-03,-2.599298E-06
-264.7451E-03,-2.591416E-06
-269.6440E-03,-2.592302E-06
-274.5391E-03,-2.596341E-06
-279.6774E-03,-2.594459E-06
-284.6024E-03,-2.601879E-06
-289.7404E-03,-2.599340E-06
-294.6160E-03,-2.592157E-06
-299.5410E-03,-2.609457E-06
-304.6762E-03,-2.603098E-06
-309.5888E-03,-2.603751E-06
-314.7180E-03,-2.601635E-06
-319.6295E-03,-2.608876E-06
-324.5254E-03,-2.604021E-06
-329.6539E-03,-2.606661E-06
-334.5625E-03,-2.610636E-06
-339.6983E-03,-2.611925E-06
-344.5895E-03,-2.611878E-06
-349.5034E-03,-2.612253E-06
-354.6466E-03,-2.606658E-06
-359.5496E-03,-2.609083E-06
-364.4471E-03,-2.628205E-06
-369.5836E-03,-2.616202E-06
-374.4747E-03,-2.612368E-06
-379.6289E-03,-2.606361E-06
-384.5303E-03,-2.611884E-06
-389.4275E-03,-2.615420E-06
-394.5768E-03,-2.610707E-06
-399.4747E-03,-2.625942E-06
-404.5919E-03,-2.609302E-06
-409.5108E-03,-2.611504E-06
-414.4081E-03,-2.610479E-06
-419.5408E-03,-2.610043E-06
-424.4398E-03,-2.611344E-06
-429.5776E-03,-2.610686E-06
-434.4835E-03,-2.611662E-06
-439.3731E-03,-2.616342E-06
-444.5361E-03,-2.621754E-06
-449.4148E-03,-2.604147E-06
-454.3049E-03,-2.617030E-06
-459.4486E-03,-2.612881E-06
-464.3686E-03,-2.610776E-06
-469.4942E-03,-2.615354E-06
-474.4060E-03,-2.618178E-06
-479.3211E-03,-2.612492E-06
-484.4340E-03,-2.605373E-06
-489.3520E-03,-2.604571E-06
-494.5009E-03,-2.601088E-06
-499.4709E-03,-2.605640E-06

-499.4774E-03,-2.603626E-06
-494.7142E-03,-2.609068E-06
-489.6217E-03,-2.605236E-06
-484.7192E-03,-2.610071E-06
-479.5996E-03,-2.609873E-06
-474.6810E-03,-2.606639E-06
-469.7595E-03,-2.605247E-06
-464.6221E-03,-2.607332E-06
-459.7095E-03,-2.608565E-06
-454.5638E-03,-2.610854E-06
-449.6481E-03,-2.612245E-06
-444.7590E-03,-2.612650E-06
-439.6132E-03,-2.614795E-06
-434.6940E-03,-2.608452E-06
-429.8099E-03,-2.615233E-06
-424.6463E-03,-2.612983E-06
-419.7560E-03,-2.610758E-06
-414.6144E-03,-2.617702E-06
-409.7168E-03,-2.615684E-06
-404.8010E-03,-2.614899E-06
-399.6675E-03,-2.613082E-06
-394.7805E-03,-2.616032E-06
-389.6226E-03,-2.614405E-06
-384.7131E-03,-2.614875E-06
-379.8146E-03,-2.615653E-06
-374.6534E-03,-2.612942E-06
-369.7686E-03,-2.609780E-06
-364.6227E-03,-2.612743E-06
-359.7268E-03,-2.614733E-06
-354.8134E-03,-2.612914E-06
-349.6717E-03,-2.611996E-06
-344.7652E-03,-2.608261E-06
-339.8587E-03,-2.613174E-06
-334.7413E-03,-2.610426E-06
-329.8174E-03,-2.609308E-06
-324.6802E-03,-2.613167E-06
-319.7785E-03,-2.610492E-06
-314.8962E-03,-2.603844E-06
-309.7529E-03,-2.599763E-06
-304.8440E-03,-2.606705E-06
-299.7074E-03,-2.599689E-06
-294.7854E-03,-2.596521E-06
-289.9023E-03,-2.597252E-06
-284.7636E-03,-2.599063E-06
-279.8509E-03,-2.595945E-06
-274.7071E-03,-2.594940E-06
-269.8070E-03,-2.590343E-06
-264.8998E-03,-2.593171E-06
-259.7602E-03,-2.589584E-06
-254.8597E-03,-2.582728E-06
-249.9674E-03,-2.584774E-06
-244.8184E-03,-2.571277E-06
-239.9299E-03,-2.569805E-06
-234.7764E-03,-2.573026E-06
-229.8742E-03,-2.568984E-06
-224.9817E-03,-2.559652E-06
-219.8365E-03,-2.555944E-06
-214.9290E-03,-2.547684E-06
-209.7936E-03,-2.546032E-06
-204.9038E-03,-2.537521E-06
-199.9769E-03,-2.531894E-06
-194.8476E-03,-2.521370E-06
-189.9576E-03,-2.517899E-06
-184.8020E-03,-2.511367E-06
-179.9069E-03,-2.493198E-06
-175.0081E-03,-2.492446E-06
-169.8585E-03,-2.474585E-06
-164.9584E-03,-2.458500E-06
-159.8217E-03,-2.445219E-06
-154.9181E-03,-2.425978E-06
-150.0162E-03,-2.404179E-06
-144.8682E-03,-2.383583E-06
-139.9628E-03,-2.368066E-06
-135.0687E-03,-2.340325E-06
-129.9250E-03,-2.308958E-06
-125.0160E-03,-2.272812E-06
-119.8735E-03,-2.244722E-06
-114.9814E-03,-2.219984E-06
-110.1029E-03,-2.159233E-06
-104.9320E-03,-2.118767E-06
-100.0515E-03,-2.064711E-06
-94.89281E-03,-2.011623E-06
-89.98849E-03,-1.955647E-06
-85.09236E-03,-1.907493E-06
-79.96885E-03,-1.832053E-06
-75.04772E-03,-1.765261E-06
-69.91341E-03,-1.695923E-06
-65.01409E-03,-1.620381E-06
-60.11937E-03,-1.526950E-06
-54.97264E-03,-1.437696E-06
-50.06585E-03,-1.344326E-06
-45.15750E-03,-1.242446E-06
-40.02840E-03,-1.134020E-06
-35.14019E-03,-1.031378E-06
-29.97990E-03,-905.5128E-09
-25.07471E-03,-794.2222E-09
-20.18016E-03,-677.0685E-09
-15.02648E-03,-529.5536E-09
-10.13588E-03,-401.1138E-09
-4.995235E-03,-272.0364E-09
-136.4244E-06,-117.1963E-09
+4.787283E-03,+31.14744E-09
+9.902178E-03,+185.6227E-09
+14.80234E-03,+327.9408E-09
+19.93954E-03,+490.5243E-09
+24.85060E-03,+621.1690E-09
+29.73627E-03,+745.9370E-09
+34.89695E-03,+899.2687E-09
+39.79905E-03,+1.014835E-06
+44.93150E-03,+1.151832E-06
+49.83952E-03,+1.257866E-06
+54.73622E-03,+1.362203E-06
+59.86841E-03,+1.451747E-06
+64.78669E-03,+1.552069E-06
+69.67822E-03,+1.648080E-06
+74.80648E-03,+1.737572E-06
+79.73363E-03,+1.795816E-06
+84.86421E-03,+1.857872E-06
+89.75045E-03,+1.929776E-06
+94.67291E-03,+1.996664E-06
+99.81408E-03,+2.066316E-06
+104.7016E-03,+2.103056E-06
+109.8432E-03,+2.140316E-06
+114.7493E-03,+2.201389E-06
+119.6647E-03,+2.241863E-06
+124.7834E-03,+2.267766E-06
+129.6876E-03,+2.322303E-06
+134.8326E-03,+2.334654E-06
+139.7282E-03,+2.354209E-06
+144.6271E-03,+2.370862E-06
+149.7456E-03,+2.414386E-06
+154.6540E-03,+2.431906E-06
+159.5773E-03,+2.446686E-06
+164.7182E-03,+2.467937E-06
+169.6111E-03,+2.476243E-06
+174.7499E-03,+2.492513E-06
+179.6749E-03,+2.492119E-06
+184.5476E-03,+2.513427E-06
+189.7123E-03,+2.537476E-06
+194.6026E-03,+2.524708E-06
+199.7277E-03,+2.543894E-06
+204.6396E-03,+2.540000E-06
+209.5440E-03,+2.548438E-06
+214.6753E-03,+2.546438E-06
+219.5844E-03,+2.564418E-06
+224.7091E-03,+2.573761E-06
+229.6180E-03,+2.564174E-06
+234.5064E-03,+2.565848E-06
+239.6647E-03,+2.574899E-06
+244.5635E-03,+2.578136E-06
+249.7195E-03,+2.584062E-06
+254.6038E-03,+2.591707E-06
+259.5008E-03,+2.603741E-06
+264.6530E-03,+2.583023E-06
+269.5414E-03,+2.598949E-06
+274.4520E-03,+2.596611E-06
+279.5630E-03,+2.604248E-06
+284.5116E-03,+2.595915E-06
+289.6416E-03,+2.597426E-06
+294.5309E-03,+2.603274E-06
+299.4408E-03,+2.609811E-06
+304.5623E-03,+2.607045E-06
+309.4676E-03,+2.611089E-06
+314.6147E-03,+2.609780E-06
+319.5126E-03,+2.609237E-06
+324.4127E-03,+2.615659E-06
+329.5633E-03,+2.609031E-06
+334.4537E-03,+2.616402E-06
+339.5768E-03,+2.629821E-06
+344.4863E-03,+2.608181E-06
+349.3918E-03,+2.622740E-06
+354.5322E-03,+2.618375E-06
+359.4396E-03,+2.611161E-06
+364.3315E-03,+2.604512E-06
+369.4720E-03,+2.607805E-06
+374.3670E-03,+2.611867E-06
+379.5224E-03,+2.617346E-06
+384.4154E-03,+2.618456E-06
+389.3064E-03,+2.620557E-06
+394.4454E-03,+2.618945E-06
+399.3503E-03,+2.621216E-06
+404.4895E-03,+2.622161E-06
+409.3829E-03,+2.624014E-06
+414.3162E-03,+2.618530E-06
+419.4274E-03,+2.613692E-06
+424.3267E-03,+2.615854E-06
+429.4670E-03,+2.615180E-06
+434.3599E-03,+2.615003E-06
+439.2735E-03,+2.620277E-06
+444.4124E-03,+2.614400E-06
+449.3171E-03,+2.615247E-06
+454.1940E-03,+2.617295E-06
+459.3454E-03,+2.613842E-06
+464.2475E-03,+2.610165E-06
+469.3714E-03,+2.619106E-06
+474.2853E-03,+2.614023E-06
+479.1862E-03,+2.616227E-06
+484.3182E-03,+2.613435E-06
+489.2398E-03,+2.612697E-06
+494.3743E-03,+2.615415E-06
+499.3646E-03,+2.606742E-06

MicroMag 2900/3900 Data File ends
