MicroMag 2900/3900 Data File (Series 0016.002)
Direct moment vs. field; Hysteresis loop

INSTRUMENT
Configuration                   VSM
Temperature control             None
Hardware version                0004
Software version                06/08/2012
Units of measure                Hybrid SI
Temperature in                  Kelvin

SAMPLE
Mass                            N/A
Volume                          N/A
Demagnetizing factor            N/A

SETTINGS
Field range                    +1.000000E+00
Field (command)                 N/A
Moment range                   +5.000000E-06
Averaging time                 +100.0000E-03
Temperature (command)           N/A
Tmprtr difference correction    No
Orientation                     0.000000E+00
Vibration amplitude             1.0
Calibration factor             +3.570920E+00
Operating frequency            +83.00000E+00
Sweep mode                      Discrete
Pause after sweep increment    +300.0000E-03

MEASUREMENT
Description                    "DQ15-33B1"
Field (measured)                N/A
Temperature (measured)          N/A
Averages (completed)            1
Measured on                     10/29/2016  13:09
Elapsed time                   +166.7918E+00

PROCESSING
Background subtraction          No
Delta-m processing              N/A
Demagnetizing factor            No
Normalization                   No
Normalization factor            N/A
Offset (field)                  No
Offset (moment)                 No
Pole saturation                 No
Slope correction                No

VIEWPORT
Left                           -500.0000E-03
Right                          +500.0000E-03
Bottom                         -5.000000E-06
Top                            +5.000000E-06
Show X-axis?                    Yes
Show Y-axis?                    Yes

CHARACTERIZATION
Initial slope                   N/A
Saturation                     +2.603042E-06
Remanence                      +137.2788E-09
Coercivity                     +4.348897E-03
S*                             +2.847118E-03

SCRIPT
Averages (target)               1
Averaging time                 +100.0000E-03
Demagnetize?                    No
Maximum field                  +500.0000E-03
Field increment                +5.000000E-03
Hysteresis loop?                Yes
Initial magnetization?          No
Pause                          +1.000000E+00
Saturate before measuring?      No
Number of segments              2
Number of data                  402

Segment   Averaging      Initial        Field         Final                    Final 
 Number      Time         Field       Increment       Field         Pause      Index 
             (s)           (T)           (T)           (T)           (s)     
0000001,+100.0000E-03,+500.0000E-03,+5.000000E-03,-500.0000E-03,+1.000000E+00,0000201
0000002,+100.0000E-03,-500.0000E-03,+5.000000E-03,+500.0000E-03,+1.000000E+00,0000402

                           
    Field         Moment   
     (T)          (Am²)    
+499.3797E-03,+2.605782E-06
+494.6150E-03,+2.607308E-06
+489.5113E-03,+2.603685E-06
+484.6129E-03,+2.603199E-06
+479.4739E-03,+2.608374E-06
+474.5574E-03,+2.607266E-06
+469.6455E-03,+2.610984E-06
+464.4858E-03,+2.606146E-06
+459.6042E-03,+2.608624E-06
+454.4452E-03,+2.607685E-06
+449.5388E-03,+2.610190E-06
+444.6577E-03,+2.604513E-06
+439.5410E-03,+2.609872E-06
+434.5961E-03,+2.609871E-06
+429.6865E-03,+2.610289E-06
+424.5418E-03,+2.611101E-06
+419.6554E-03,+2.607791E-06
+414.5064E-03,+2.611419E-06
+409.6051E-03,+2.609066E-06
+404.7063E-03,+2.610930E-06
+399.5600E-03,+2.610080E-06
+394.6500E-03,+2.610469E-06
+389.4970E-03,+2.614535E-06
+384.6154E-03,+2.603709E-06
+379.7140E-03,+2.604002E-06
+374.5522E-03,+2.614146E-06
+369.6747E-03,+2.613739E-06
+364.5253E-03,+2.608288E-06
+359.6234E-03,+2.605225E-06
+354.7119E-03,+2.605582E-06
+349.5756E-03,+2.609002E-06
+344.6787E-03,+2.606732E-06
+339.7908E-03,+2.614090E-06
+334.6185E-03,+2.610930E-06
+329.7270E-03,+2.604073E-06
+324.5958E-03,+2.605505E-06
+319.6855E-03,+2.600371E-06
+314.7863E-03,+2.605758E-06
+309.6293E-03,+2.599851E-06
+304.7369E-03,+2.605774E-06
+299.6024E-03,+2.596720E-06
+294.6756E-03,+2.597632E-06
+289.7923E-03,+2.604088E-06
+284.6653E-03,+2.601210E-06
+279.7337E-03,+2.590758E-06
+274.6137E-03,+2.593719E-06
+269.7052E-03,+2.590160E-06
+264.7995E-03,+2.588692E-06
+259.6649E-03,+2.583311E-06
+254.7732E-03,+2.585030E-06
+249.8539E-03,+2.577811E-06
+244.7153E-03,+2.577003E-06
+239.8159E-03,+2.572022E-06
+234.6606E-03,+2.561834E-06
+229.7641E-03,+2.558184E-06
+224.8769E-03,+2.557106E-06
+219.7340E-03,+2.553924E-06
+214.8339E-03,+2.541755E-06
+209.6876E-03,+2.540432E-06
+204.7853E-03,+2.527494E-06
+199.8732E-03,+2.526403E-06
+194.7500E-03,+2.514050E-06
+189.8483E-03,+2.511622E-06
+184.6911E-03,+2.498071E-06
+179.8055E-03,+2.497449E-06
+174.8895E-03,+2.483264E-06
+169.7432E-03,+2.472311E-06
+164.8524E-03,+2.456489E-06
+159.7304E-03,+2.439989E-06
+154.7965E-03,+2.419383E-06
+149.8976E-03,+2.410698E-06
+144.7473E-03,+2.379392E-06
+139.8681E-03,+2.356883E-06
+134.9611E-03,+2.340369E-06
+129.8314E-03,+2.308811E-06
+124.9269E-03,+2.287825E-06
+119.7823E-03,+2.236136E-06
+114.8929E-03,+2.195420E-06
+109.9709E-03,+2.172087E-06
+104.8325E-03,+2.113431E-06
+99.93803E-03,+2.075690E-06
+94.80563E-03,+2.015220E-06
+89.90061E-03,+1.958191E-06
+85.00262E-03,+1.905729E-06
+79.86239E-03,+1.834630E-06
+74.93595E-03,+1.774297E-06
+69.82332E-03,+1.690981E-06
+64.90653E-03,+1.609006E-06
+60.01607E-03,+1.513122E-06
+54.86190E-03,+1.444751E-06
+49.96810E-03,+1.347037E-06
+45.06035E-03,+1.248297E-06
+39.91307E-03,+1.118179E-06
+35.02924E-03,+1.024721E-06
+29.87703E-03,+906.1270E-09
+24.97323E-03,+805.5171E-09
+20.06804E-03,+662.7509E-09
+14.91885E-03,+541.0488E-09
+10.04532E-03,+409.8087E-09
+4.909375E-03,+272.2559E-09
+3.382329E-06,+142.6167E-09
-4.883585E-03,-7.736827E-09
-10.01378E-03,-172.8450E-09
-14.90691E-03,-326.6575E-09
-20.05015E-03,-471.1546E-09
-24.94553E-03,-611.8034E-09
-29.86130E-03,-759.6587E-09
-35.01325E-03,-900.7838E-09
-39.89744E-03,-1.005920E-06
-45.04368E-03,-1.128470E-06
-49.92985E-03,-1.243369E-06
-54.84317E-03,-1.333094E-06
-59.98069E-03,-1.446115E-06
-64.88010E-03,-1.547558E-06
-69.78131E-03,-1.644840E-06
-74.91659E-03,-1.712365E-06
-79.83244E-03,-1.789291E-06
-84.95708E-03,-1.851375E-06
-89.84984E-03,-1.937977E-06
-94.76811E-03,-1.983179E-06
-99.91017E-03,-2.047170E-06
-104.8189E-03,-2.114785E-06
-109.9466E-03,-2.140714E-06
-114.9052E-03,-2.188214E-06
-119.7385E-03,-2.230710E-06
-124.8843E-03,-2.280177E-06
-129.8079E-03,-2.302689E-06
-134.9205E-03,-2.318794E-06
-139.8294E-03,-2.361032E-06
-144.7556E-03,-2.367328E-06
-149.8710E-03,-2.402942E-06
-154.7593E-03,-2.412296E-06
-159.6837E-03,-2.418973E-06
-164.8154E-03,-2.449407E-06
-169.7191E-03,-2.463548E-06
-174.8702E-03,-2.469194E-06
-179.7523E-03,-2.478688E-06
-184.6743E-03,-2.493500E-06
-189.8218E-03,-2.508881E-06
-194.7046E-03,-2.495676E-06
-199.8371E-03,-2.526643E-06
-204.7513E-03,-2.537513E-06
-209.6384E-03,-2.539003E-06
-214.7862E-03,-2.560556E-06
-219.6852E-03,-2.545371E-06
-224.8321E-03,-2.549054E-06
-229.7232E-03,-2.573678E-06
-234.6281E-03,-2.570082E-06
-239.7865E-03,-2.563920E-06
-244.6669E-03,-2.558251E-06
-249.8360E-03,-2.577271E-06
-254.7140E-03,-2.578253E-06
-259.6098E-03,-2.577405E-06
-264.7612E-03,-2.586440E-06
-269.6509E-03,-2.589577E-06
-274.5472E-03,-2.593415E-06
-279.6815E-03,-2.591999E-06
-284.5971E-03,-2.589482E-06
-289.7530E-03,-2.589461E-06
-294.6236E-03,-2.591045E-06
-299.5542E-03,-2.591907E-06
-304.6749E-03,-2.582977E-06
-309.5785E-03,-2.604676E-06
-314.7194E-03,-2.595502E-06
-319.6135E-03,-2.602486E-06
-324.5361E-03,-2.599743E-06
-329.6743E-03,-2.602666E-06
-334.5967E-03,-2.606179E-06
-339.6936E-03,-2.595035E-06
-344.5927E-03,-2.606015E-06
-349.4983E-03,-2.602638E-06
-354.6360E-03,-2.599146E-06
-359.5464E-03,-2.606419E-06
-364.4592E-03,-2.600790E-06
-369.6121E-03,-2.605826E-06
-374.4741E-03,-2.611158E-06
-379.6285E-03,-2.599466E-06
-384.5306E-03,-2.602943E-06
-389.4275E-03,-2.605089E-06
-394.5753E-03,-2.608351E-06
-399.4665E-03,-2.606645E-06
-404.5994E-03,-2.607498E-06
-409.5174E-03,-2.606594E-06
-414.4137E-03,-2.609681E-06
-419.5578E-03,-2.606366E-06
-424.4424E-03,-2.603944E-06
-429.5840E-03,-2.605783E-06
-434.4834E-03,-2.600687E-06
-439.3908E-03,-2.606192E-06
-444.5368E-03,-2.607686E-06
-449.4372E-03,-2.602934E-06
-454.3259E-03,-2.598774E-06
-459.4651E-03,-2.598312E-06
-464.3750E-03,-2.601346E-06
-469.4878E-03,-2.603928E-06
-474.4039E-03,-2.603767E-06
-479.3075E-03,-2.605856E-06
-484.4103E-03,-2.603857E-06
-489.3568E-03,-2.598822E-06
-494.4934E-03,-2.609030E-06
-499.4410E-03,-2.599954E-06

-499.4836E-03,-2.601383E-06
-494.7203E-03,-2.599581E-06
-489.6317E-03,-2.601590E-06
-484.7173E-03,-2.601129E-06
-479.5856E-03,-2.605773E-06
-474.6883E-03,-2.601379E-06
-469.7850E-03,-2.602250E-06
-464.6070E-03,-2.605732E-06
-459.7302E-03,-2.609141E-06
-454.5528E-03,-2.606128E-06
-449.6515E-03,-2.607210E-06
-444.7703E-03,-2.605436E-06
-439.6127E-03,-2.604118E-06
-434.6953E-03,-2.605612E-06
-429.8110E-03,-2.607506E-06
-424.6613E-03,-2.604876E-06
-419.7405E-03,-2.609752E-06
-414.6210E-03,-2.605771E-06
-409.7337E-03,-2.609162E-06
-404.7979E-03,-2.610431E-06
-399.6702E-03,-2.601480E-06
-394.7784E-03,-2.606288E-06
-389.6226E-03,-2.603279E-06
-384.7204E-03,-2.608370E-06
-379.8166E-03,-2.605561E-06
-374.6677E-03,-2.607859E-06
-369.7707E-03,-2.608063E-06
-364.6352E-03,-2.606877E-06
-359.7080E-03,-2.607706E-06
-354.8140E-03,-2.606156E-06
-349.6838E-03,-2.610707E-06
-344.7849E-03,-2.603330E-06
-339.8588E-03,-2.601194E-06
-334.7904E-03,-2.606217E-06
-329.8399E-03,-2.600511E-06
-324.6876E-03,-2.602327E-06
-319.8101E-03,-2.599539E-06
-314.8910E-03,-2.598296E-06
-309.7531E-03,-2.599042E-06
-304.8361E-03,-2.597339E-06
-299.7093E-03,-2.599348E-06
-294.7789E-03,-2.604411E-06
-289.9045E-03,-2.595856E-06
-284.7701E-03,-2.588258E-06
-279.8437E-03,-2.587209E-06
-274.7082E-03,-2.590687E-06
-269.8033E-03,-2.582227E-06
-264.9126E-03,-2.588507E-06
-259.7755E-03,-2.583634E-06
-254.8581E-03,-2.575959E-06
-249.9710E-03,-2.573594E-06
-244.8297E-03,-2.571011E-06
-239.9359E-03,-2.571653E-06
-234.7903E-03,-2.564326E-06
-229.8773E-03,-2.559261E-06
-224.9480E-03,-2.550216E-06
-219.8365E-03,-2.553040E-06
-214.9287E-03,-2.545489E-06
-209.7925E-03,-2.539954E-06
-204.9335E-03,-2.525089E-06
-199.9910E-03,-2.522427E-06
-194.8341E-03,-2.512172E-06
-189.9598E-03,-2.505346E-06
-184.8107E-03,-2.496319E-06
-179.9202E-03,-2.489185E-06
-175.0120E-03,-2.476379E-06
-169.8536E-03,-2.457245E-06
-164.9908E-03,-2.460614E-06
-159.8342E-03,-2.439038E-06
-154.9117E-03,-2.417516E-06
-149.9964E-03,-2.400152E-06
-144.8782E-03,-2.372031E-06
-139.9662E-03,-2.355432E-06
-135.0601E-03,-2.330837E-06
-129.9306E-03,-2.301260E-06
-125.0145E-03,-2.271624E-06
-119.8911E-03,-2.233829E-06
-114.9670E-03,-2.193851E-06
-110.0902E-03,-2.167046E-06
-104.9502E-03,-2.114393E-06
-100.0470E-03,-2.066512E-06
-94.91105E-03,-1.999191E-06
-89.99491E-03,-1.957598E-06
-85.11552E-03,-1.893220E-06
-79.96650E-03,-1.841056E-06
-75.04445E-03,-1.756353E-06
-69.92678E-03,-1.683315E-06
-65.00878E-03,-1.599501E-06
-60.12014E-03,-1.520370E-06
-54.97368E-03,-1.427819E-06
-50.06955E-03,-1.355898E-06
-45.14137E-03,-1.236181E-06
-40.06337E-03,-1.127992E-06
-35.14239E-03,-1.017039E-06
-29.97724E-03,-906.9516E-09
-25.07987E-03,-784.8901E-09
-20.16480E-03,-663.5075E-09
-15.04031E-03,-527.3391E-09
-10.14647E-03,-407.1181E-09
-4.990030E-03,-268.9745E-09
-121.4602E-06,-135.9897E-09
+4.786721E-03,+23.41788E-09
+9.903847E-03,+181.9867E-09
+14.79740E-03,+316.8914E-09
+19.94672E-03,+465.6648E-09
+24.84591E-03,+623.1627E-09
+29.73214E-03,+770.7829E-09
+34.93310E-03,+875.6585E-09
+39.80720E-03,+1.010976E-06
+44.92662E-03,+1.139518E-06
+49.83500E-03,+1.246735E-06
+54.73454E-03,+1.350638E-06
+59.86074E-03,+1.459602E-06
+64.78327E-03,+1.557463E-06
+69.67786E-03,+1.642417E-06
+74.80383E-03,+1.725800E-06
+79.74257E-03,+1.798552E-06
+84.86640E-03,+1.890619E-06
+89.76280E-03,+1.952230E-06
+94.67237E-03,+2.007678E-06
+99.79153E-03,+2.044717E-06
+104.7251E-03,+2.090009E-06
+109.8387E-03,+2.154872E-06
+114.7395E-03,+2.184896E-06
+119.6407E-03,+2.234360E-06
+124.8031E-03,+2.277181E-06
+129.6958E-03,+2.297852E-06
+134.8364E-03,+2.327105E-06
+139.7276E-03,+2.355656E-06
+144.6332E-03,+2.372596E-06
+149.7647E-03,+2.391424E-06
+154.6637E-03,+2.420341E-06
+159.5869E-03,+2.448052E-06
+164.7283E-03,+2.462069E-06
+169.6096E-03,+2.465656E-06
+174.7697E-03,+2.494523E-06
+179.6697E-03,+2.507787E-06
+184.5519E-03,+2.509708E-06
+189.6960E-03,+2.513076E-06
+194.6023E-03,+2.517450E-06
+199.7326E-03,+2.538667E-06
+204.6672E-03,+2.538001E-06
+209.5387E-03,+2.547190E-06
+214.6795E-03,+2.540199E-06
+219.5905E-03,+2.547167E-06
+224.7196E-03,+2.567271E-06
+229.6306E-03,+2.568476E-06
+234.5136E-03,+2.558088E-06
+239.6659E-03,+2.573973E-06
+244.5759E-03,+2.569337E-06
+249.7042E-03,+2.574574E-06
+254.6026E-03,+2.586020E-06
+259.5105E-03,+2.591991E-06
+264.6440E-03,+2.583232E-06
+269.5506E-03,+2.589607E-06
+274.4387E-03,+2.586861E-06
+279.5851E-03,+2.594363E-06
+284.5146E-03,+2.590012E-06
+289.6472E-03,+2.604134E-06
+294.5250E-03,+2.602988E-06
+299.4357E-03,+2.603804E-06
+304.5741E-03,+2.593951E-06
+309.4701E-03,+2.605566E-06
+314.6502E-03,+2.598632E-06
+319.5280E-03,+2.610509E-06
+324.4128E-03,+2.602720E-06
+329.5565E-03,+2.604755E-06
+334.4584E-03,+2.606255E-06
+339.5911E-03,+2.608277E-06
+344.4853E-03,+2.608548E-06
+349.3809E-03,+2.606763E-06
+354.5378E-03,+2.603832E-06
+359.4324E-03,+2.610448E-06
+364.3355E-03,+2.605748E-06
+369.4835E-03,+2.611735E-06
+374.3777E-03,+2.603945E-06
+379.5218E-03,+2.605290E-06
+384.4197E-03,+2.610249E-06
+389.3085E-03,+2.608016E-06
+394.4512E-03,+2.611490E-06
+399.3706E-03,+2.608903E-06
+404.4988E-03,+2.613894E-06
+409.3998E-03,+2.604736E-06
+414.2949E-03,+2.612575E-06
+419.4354E-03,+2.606608E-06
+424.3402E-03,+2.604821E-06
+429.4772E-03,+2.608855E-06
+434.3898E-03,+2.605130E-06
+439.2901E-03,+2.606280E-06
+444.4209E-03,+2.608838E-06
+449.3122E-03,+2.612378E-06
+454.2150E-03,+2.608827E-06
+459.3446E-03,+2.609679E-06
+464.2615E-03,+2.605718E-06
+469.3824E-03,+2.605552E-06
+474.2933E-03,+2.609258E-06
+479.2064E-03,+2.604286E-06
+484.3206E-03,+2.606396E-06
+489.2370E-03,+2.602809E-06
+494.3686E-03,+2.601407E-06
+499.3664E-03,+2.598069E-06

MicroMag 2900/3900 Data File ends
