MicroMag 2900/3900 Data File (Series 0016.002)
Direct moment vs. field; Hysteresis loop

INSTRUMENT
Configuration                   VSM
Temperature control             None
Hardware version                0004
Software version                06/08/2012
Units of measure                Hybrid SI
Temperature in                  Kelvin

SAMPLE
Mass                            N/A
Volume                          N/A
Demagnetizing factor            N/A

SETTINGS
Field range                    +1.000000E+00
Field (command)                 N/A
Moment range                   +5.000000E-06
Averaging time                 +200.0000E-03
Temperature (command)           N/A
Tmprtr difference correction    No
Orientation                     0.000000E+00
Vibration amplitude             1.0
Calibration factor             +3.570920E+00
Operating frequency            +83.00000E+00
Sweep mode                      Discrete
Pause after sweep increment    +300.0000E-03

MEASUREMENT
Description                    "DQ15-33B1"
Field (measured)                N/A
Temperature (measured)          N/A
Averages (completed)            1
Measured on                     10/29/2016  16:49
Elapsed time                   +206.9158E+00

PROCESSING
Background subtraction          No
Delta-m processing              N/A
Demagnetizing factor            No
Normalization                   No
Normalization factor            N/A
Offset (field)                  No
Offset (moment)                 No
Pole saturation                 No
Slope correction                No

VIEWPORT
Left                           -500.0000E-03
Right                          +500.0000E-03
Bottom                         -5.000000E-06
Top                            +5.000000E-06
Show X-axis?                    Yes
Show Y-axis?                    Yes

CHARACTERIZATION
Initial slope                   N/A
Saturation                     +2.646918E-06
Remanence                      +128.7711E-09
Coercivity                     +4.135150E-03
S*                             +11.42379E-06

SCRIPT
Averages (target)               1
Averaging time                 +200.0000E-03
Demagnetize?                    No
Maximum field                  +500.0000E-03
Field increment                +5.000000E-03
Hysteresis loop?                Yes
Initial magnetization?          No
Pause                          +1.000000E+00
Saturate before measuring?      No
Number of segments              2
Number of data                  402

Segment   Averaging      Initial        Field         Final                    Final 
 Number      Time         Field       Increment       Field         Pause      Index 
             (s)           (T)           (T)           (T)           (s)     
0000001,+200.0000E-03,+500.0000E-03,+5.000000E-03,-500.0000E-03,+1.000000E+00,0000201
0000002,+200.0000E-03,-500.0000E-03,+5.000000E-03,+500.0000E-03,+1.000000E+00,0000402

                           
    Field         Moment   
     (T)          (Am²)    
+499.3430E-03,+2.647833E-06
+494.5682E-03,+2.647914E-06
+489.4674E-03,+2.651570E-06
+484.5369E-03,+2.653688E-06
+479.4043E-03,+2.650578E-06
+474.4973E-03,+2.654751E-06
+469.5850E-03,+2.649153E-06
+464.4490E-03,+2.651550E-06
+459.5450E-03,+2.652594E-06
+454.4024E-03,+2.654253E-06
+449.4895E-03,+2.654711E-06
+444.6082E-03,+2.654396E-06
+439.4494E-03,+2.651740E-06
+434.5451E-03,+2.656756E-06
+429.6436E-03,+2.655893E-06
+424.4981E-03,+2.653045E-06
+419.5948E-03,+2.653626E-06
+414.4633E-03,+2.656896E-06
+409.5561E-03,+2.654345E-06
+404.6468E-03,+2.654227E-06
+399.5181E-03,+2.653609E-06
+394.6017E-03,+2.658381E-06
+389.4578E-03,+2.655607E-06
+384.5701E-03,+2.657852E-06
+379.6710E-03,+2.658453E-06
+374.5161E-03,+2.654137E-06
+369.6175E-03,+2.655837E-06
+364.4854E-03,+2.653876E-06
+359.5791E-03,+2.653725E-06
+354.6723E-03,+2.652213E-06
+349.5314E-03,+2.654106E-06
+344.6336E-03,+2.654207E-06
+339.7276E-03,+2.649624E-06
+334.5858E-03,+2.651999E-06
+329.7041E-03,+2.650826E-06
+324.5470E-03,+2.646070E-06
+319.6556E-03,+2.649346E-06
+314.7508E-03,+2.650145E-06
+309.5980E-03,+2.642824E-06
+304.7036E-03,+2.644334E-06
+299.5764E-03,+2.641877E-06
+294.6589E-03,+2.639595E-06
+289.7493E-03,+2.644132E-06
+284.6243E-03,+2.636574E-06
+279.6967E-03,+2.637577E-06
+274.5694E-03,+2.635950E-06
+269.6839E-03,+2.630975E-06
+264.7636E-03,+2.630994E-06
+259.6324E-03,+2.626210E-06
+254.7390E-03,+2.624391E-06
+249.8301E-03,+2.623052E-06
+244.6916E-03,+2.619003E-06
+239.7869E-03,+2.615802E-06
+234.6449E-03,+2.615523E-06
+229.7495E-03,+2.603723E-06
+224.8480E-03,+2.604248E-06
+219.7134E-03,+2.600484E-06
+214.7969E-03,+2.594681E-06
+209.6622E-03,+2.586890E-06
+204.7784E-03,+2.577912E-06
+199.8424E-03,+2.571126E-06
+194.7225E-03,+2.562547E-06
+189.7882E-03,+2.556859E-06
+184.6706E-03,+2.547597E-06
+179.7872E-03,+2.538802E-06
+174.8957E-03,+2.528642E-06
+169.7160E-03,+2.512285E-06
+164.8436E-03,+2.497778E-06
+159.6840E-03,+2.485113E-06
+154.7835E-03,+2.460252E-06
+149.8835E-03,+2.445739E-06
+144.7622E-03,+2.426643E-06
+139.8486E-03,+2.401682E-06
+134.9494E-03,+2.376395E-06
+129.8027E-03,+2.349386E-06
+124.9050E-03,+2.314684E-06
+119.7619E-03,+2.285679E-06
+114.8679E-03,+2.248086E-06
+109.9644E-03,+2.201471E-06
+104.8208E-03,+2.156509E-06
+99.92538E-03,+2.109110E-06
+94.79065E-03,+2.051608E-06
+89.87331E-03,+1.998213E-06
+84.99336E-03,+1.936315E-06
+79.85082E-03,+1.871657E-06
+74.92718E-03,+1.796859E-06
+69.79641E-03,+1.708424E-06
+64.89278E-03,+1.632851E-06
+59.99641E-03,+1.561541E-06
+54.85009E-03,+1.456026E-06
+49.94079E-03,+1.367412E-06
+45.05228E-03,+1.271227E-06
+39.91469E-03,+1.170360E-06
+35.01942E-03,+1.052093E-06
+29.85889E-03,+925.9020E-09
+24.96029E-03,+812.4130E-09
+20.06656E-03,+681.7657E-09
+14.91390E-03,+546.0184E-09
+10.03145E-03,+422.1657E-09
+4.902660E-03,+277.2874E-09
-4.953831E-06,+130.4925E-09
-4.877078E-03,-18.17981E-09
-10.02641E-03,-166.8051E-09
-14.91715E-03,-322.9599E-09
-20.06393E-03,-476.8245E-09
-24.96264E-03,-632.1708E-09
-29.87283E-03,-768.7337E-09
-35.02790E-03,-906.9885E-09
-39.91064E-03,-1.025243E-06
-45.04818E-03,-1.158740E-06
-49.94330E-03,-1.260338E-06
-54.85038E-03,-1.373707E-06
-59.98948E-03,-1.486512E-06
-64.87925E-03,-1.569823E-06
-69.78342E-03,-1.663054E-06
-74.92545E-03,-1.749320E-06
-79.84450E-03,-1.821239E-06
-84.97300E-03,-1.888765E-06
-89.85619E-03,-1.978833E-06
-94.76807E-03,-2.035141E-06
-99.92757E-03,-2.078206E-06
-104.8277E-03,-2.130672E-06
-109.9618E-03,-2.191987E-06
-114.8610E-03,-2.211382E-06
-119.7474E-03,-2.265527E-06
-124.8932E-03,-2.307951E-06
-129.7997E-03,-2.334061E-06
-134.9278E-03,-2.357269E-06
-139.8324E-03,-2.397843E-06
-144.7338E-03,-2.412554E-06
-149.8744E-03,-2.437501E-06
-154.7713E-03,-2.471885E-06
-159.6872E-03,-2.474794E-06
-164.8230E-03,-2.485541E-06
-169.7230E-03,-2.514702E-06
-174.8723E-03,-2.522180E-06
-179.7696E-03,-2.530519E-06
-184.6666E-03,-2.529600E-06
-189.8156E-03,-2.557014E-06
-194.7035E-03,-2.549237E-06
-199.8377E-03,-2.571208E-06
-204.7492E-03,-2.577271E-06
-209.6376E-03,-2.582844E-06
-214.7796E-03,-2.585817E-06
-219.6844E-03,-2.593496E-06
-224.8329E-03,-2.604046E-06
-229.7252E-03,-2.613759E-06
-234.6316E-03,-2.614939E-06
-239.7728E-03,-2.610631E-06
-244.6692E-03,-2.607546E-06
-249.8044E-03,-2.618055E-06
-254.7044E-03,-2.625639E-06
-259.6075E-03,-2.626483E-06
-264.7444E-03,-2.631699E-06
-269.6520E-03,-2.630843E-06
-274.5386E-03,-2.629676E-06
-279.6797E-03,-2.638752E-06
-284.6067E-03,-2.645691E-06
-289.7418E-03,-2.643426E-06
-294.6287E-03,-2.640962E-06
-299.5264E-03,-2.636719E-06
-304.6671E-03,-2.630525E-06
-309.5742E-03,-2.644753E-06
-314.7177E-03,-2.647669E-06
-319.6277E-03,-2.638456E-06
-324.5091E-03,-2.643887E-06
-329.6535E-03,-2.644134E-06
-334.5643E-03,-2.652843E-06
-339.6776E-03,-2.647679E-06
-344.5843E-03,-2.651282E-06
-349.4971E-03,-2.646813E-06
-354.6355E-03,-2.646068E-06
-359.5381E-03,-2.653736E-06
-364.4447E-03,-2.655946E-06
-369.5804E-03,-2.649623E-06
-374.4712E-03,-2.649809E-06
-379.6152E-03,-2.649116E-06
-384.5156E-03,-2.653819E-06
-389.4260E-03,-2.653733E-06
-394.5682E-03,-2.651881E-06
-399.4570E-03,-2.654683E-06
-404.5954E-03,-2.647691E-06
-409.5010E-03,-2.651695E-06
-414.3956E-03,-2.654228E-06
-419.5391E-03,-2.654915E-06
-424.4369E-03,-2.652800E-06
-429.5792E-03,-2.651358E-06
-434.4738E-03,-2.648824E-06
-439.3769E-03,-2.648460E-06
-444.5198E-03,-2.648210E-06
-449.4160E-03,-2.650377E-06
-454.3032E-03,-2.646527E-06
-459.4625E-03,-2.649994E-06
-464.3575E-03,-2.647643E-06
-469.4842E-03,-2.647876E-06
-474.4070E-03,-2.644703E-06
-479.3056E-03,-2.644368E-06
-484.4232E-03,-2.653497E-06
-489.3499E-03,-2.642872E-06
-494.4850E-03,-2.643595E-06
-499.4504E-03,-2.642599E-06

-499.4540E-03,-2.642577E-06
-494.6754E-03,-2.645896E-06
-489.5737E-03,-2.648669E-06
-484.6539E-03,-2.650411E-06
-479.5304E-03,-2.644892E-06
-474.6119E-03,-2.648125E-06
-469.6929E-03,-2.648530E-06
-464.5566E-03,-2.647050E-06
-459.6533E-03,-2.652399E-06
-454.5019E-03,-2.651265E-06
-449.5853E-03,-2.651192E-06
-444.6986E-03,-2.654708E-06
-439.5564E-03,-2.653650E-06
-434.6503E-03,-2.648463E-06
-429.7380E-03,-2.655801E-06
-424.5992E-03,-2.649037E-06
-419.7041E-03,-2.653087E-06
-414.5700E-03,-2.651741E-06
-409.6678E-03,-2.651206E-06
-404.7454E-03,-2.649113E-06
-399.6103E-03,-2.652376E-06
-394.7353E-03,-2.648681E-06
-389.5704E-03,-2.653808E-06
-384.6728E-03,-2.651143E-06
-379.7645E-03,-2.648829E-06
-374.6198E-03,-2.650889E-06
-369.7251E-03,-2.653071E-06
-364.5929E-03,-2.652041E-06
-359.6859E-03,-2.651079E-06
-354.7733E-03,-2.649153E-06
-349.6429E-03,-2.652533E-06
-344.7258E-03,-2.637935E-06
-339.8211E-03,-2.650571E-06
-334.7008E-03,-2.645136E-06
-329.7972E-03,-2.647276E-06
-324.6413E-03,-2.647177E-06
-319.7485E-03,-2.644240E-06
-314.8597E-03,-2.641937E-06
-309.7149E-03,-2.644794E-06
-304.8086E-03,-2.647302E-06
-299.6665E-03,-2.639440E-06
-294.7543E-03,-2.634878E-06
-289.8663E-03,-2.634416E-06
-284.7331E-03,-2.635553E-06
-279.8117E-03,-2.632466E-06
-274.6685E-03,-2.633608E-06
-269.7801E-03,-2.627621E-06
-264.8717E-03,-2.628696E-06
-259.7364E-03,-2.623231E-06
-254.8335E-03,-2.621360E-06
-249.9378E-03,-2.615605E-06
-244.8005E-03,-2.616857E-06
-239.9174E-03,-2.610636E-06
-234.7575E-03,-2.605454E-06
-229.8478E-03,-2.604300E-06
-224.9550E-03,-2.600016E-06
-219.8088E-03,-2.593848E-06
-214.8996E-03,-2.588298E-06
-209.7594E-03,-2.582209E-06
-204.8735E-03,-2.579027E-06
-199.9546E-03,-2.570904E-06
-194.8191E-03,-2.562228E-06
-189.9204E-03,-2.552415E-06
-184.7851E-03,-2.542436E-06
-179.8805E-03,-2.533529E-06
-174.9874E-03,-2.515879E-06
-169.8406E-03,-2.506483E-06
-164.9303E-03,-2.488343E-06
-159.8029E-03,-2.477711E-06
-154.8834E-03,-2.461862E-06
-149.9792E-03,-2.434468E-06
-144.8480E-03,-2.426521E-06
-139.9430E-03,-2.399882E-06
-135.0438E-03,-2.367651E-06
-129.9115E-03,-2.343336E-06
-125.0042E-03,-2.315288E-06
-119.8637E-03,-2.271431E-06
-114.9621E-03,-2.238393E-06
-110.0736E-03,-2.198122E-06
-104.9291E-03,-2.153549E-06
-100.0285E-03,-2.107870E-06
-94.89178E-03,-2.050517E-06
-89.96769E-03,-1.985907E-06
-85.08858E-03,-1.922094E-06
-79.93583E-03,-1.861065E-06
-75.03535E-03,-1.788325E-06
-69.89682E-03,-1.705687E-06
-64.98595E-03,-1.629351E-06
-60.11709E-03,-1.554216E-06
-54.96237E-03,-1.460715E-06
-50.04627E-03,-1.357960E-06
-45.18321E-03,-1.269040E-06
-40.01752E-03,-1.142039E-06
-35.12786E-03,-1.048845E-06
-29.96902E-03,-921.7995E-09
-25.06906E-03,-802.4189E-09
-20.16016E-03,-676.3210E-09
-15.01930E-03,-552.7906E-09
-10.12695E-03,-408.7924E-09
-4.983563E-03,-271.1149E-09
-122.8361E-06,-130.8093E-09
+4.801321E-03,+25.84258E-09
+9.945044E-03,+181.9587E-09
+14.80902E-03,+337.9728E-09
+19.98260E-03,+494.1482E-09
+24.85895E-03,+623.1457E-09
+29.71986E-03,+767.9890E-09
+34.90561E-03,+920.8772E-09
+39.81367E-03,+1.030623E-06
+44.93844E-03,+1.157647E-06
+49.84942E-03,+1.286761E-06
+54.75757E-03,+1.383953E-06
+59.89199E-03,+1.486276E-06
+64.78482E-03,+1.579560E-06
+69.69186E-03,+1.673980E-06
+74.81837E-03,+1.764928E-06
+79.73418E-03,+1.835413E-06
+84.87841E-03,+1.898178E-06
+89.77445E-03,+1.967484E-06
+94.67699E-03,+2.029508E-06
+99.80988E-03,+2.092625E-06
+104.7064E-03,+2.138567E-06
+109.8589E-03,+2.190892E-06
+114.7633E-03,+2.237257E-06
+119.6462E-03,+2.264240E-06
+124.8048E-03,+2.302429E-06
+129.6948E-03,+2.337534E-06
+134.8303E-03,+2.371513E-06
+139.7298E-03,+2.388606E-06
+144.6407E-03,+2.411079E-06
+149.7677E-03,+2.443601E-06
+154.6673E-03,+2.466674E-06
+159.5855E-03,+2.480305E-06
+164.7269E-03,+2.496907E-06
+169.6140E-03,+2.512648E-06
+174.7588E-03,+2.510836E-06
+179.6751E-03,+2.541320E-06
+184.5549E-03,+2.537844E-06
+189.7068E-03,+2.554172E-06
+194.5987E-03,+2.559004E-06
+199.7338E-03,+2.579208E-06
+204.6469E-03,+2.589111E-06
+209.5412E-03,+2.585815E-06
+214.6833E-03,+2.601613E-06
+219.5848E-03,+2.596934E-06
+224.7248E-03,+2.609542E-06
+229.6226E-03,+2.600264E-06
+234.5224E-03,+2.610877E-06
+239.6669E-03,+2.614183E-06
+244.5699E-03,+2.615952E-06
+249.7080E-03,+2.625267E-06
+254.6190E-03,+2.631863E-06
+259.5100E-03,+2.630840E-06
+264.6396E-03,+2.640257E-06
+269.5507E-03,+2.629221E-06
+274.4383E-03,+2.639933E-06
+279.5743E-03,+2.639540E-06
+284.5008E-03,+2.634454E-06
+289.6383E-03,+2.639067E-06
+294.5162E-03,+2.643606E-06
+299.4323E-03,+2.643258E-06
+304.5679E-03,+2.641679E-06
+309.4643E-03,+2.645919E-06
+314.6027E-03,+2.643818E-06
+319.5092E-03,+2.650824E-06
+324.3988E-03,+2.647721E-06
+329.5612E-03,+2.655698E-06
+334.4455E-03,+2.650245E-06
+339.5821E-03,+2.650976E-06
+344.4854E-03,+2.649025E-06
+349.3774E-03,+2.653104E-06
+354.5242E-03,+2.653895E-06
+359.4328E-03,+2.653620E-06
+364.3373E-03,+2.652605E-06
+369.4750E-03,+2.654893E-06
+374.3646E-03,+2.649231E-06
+379.4977E-03,+2.656767E-06
+384.4166E-03,+2.653798E-06
+389.2966E-03,+2.656449E-06
+394.4520E-03,+2.658535E-06
+399.3522E-03,+2.652555E-06
+404.4842E-03,+2.653955E-06
+409.3859E-03,+2.650448E-06
+414.2961E-03,+2.655177E-06
+419.4191E-03,+2.654415E-06
+424.3329E-03,+2.656088E-06
+429.4666E-03,+2.652179E-06
+434.3663E-03,+2.651181E-06
+439.2720E-03,+2.650316E-06
+444.4059E-03,+2.651258E-06
+449.3030E-03,+2.653043E-06
+454.2056E-03,+2.657807E-06
+459.3462E-03,+2.651905E-06
+464.2489E-03,+2.649607E-06
+469.3788E-03,+2.649459E-06
+474.3000E-03,+2.653279E-06
+479.1796E-03,+2.656861E-06
+484.3163E-03,+2.652294E-06
+489.2230E-03,+2.654076E-06
+494.3462E-03,+2.649272E-06
+499.3398E-03,+2.649478E-06

MicroMag 2900/3900 Data File ends
