MicroMag 2900/3900 Data File (Series 0016.002)
Direct moment vs. field; Hysteresis loop

INSTRUMENT
Configuration                   VSM
Temperature control             None
Hardware version                0004
Software version                06/08/2012
Units of measure                Hybrid SI
Temperature in                  Kelvin

SAMPLE
Mass                            N/A
Volume                          N/A
Demagnetizing factor            N/A

SETTINGS
Field range                    +1.000000E+00
Field (command)                 N/A
Moment range                   +5.000000E-06
Averaging time                 +100.0000E-03
Temperature (command)           N/A
Tmprtr difference correction    No
Orientation                     0.000000E+00
Vibration amplitude             1.0
Calibration factor             +3.570920E+00
Operating frequency            +83.00000E+00
Sweep mode                      Discrete
Pause after sweep increment    +300.0000E-03

MEASUREMENT
Description                    "DQ15-33B1"
Field (measured)                N/A
Temperature (measured)          N/A
Averages (completed)            1
Measured on                     10/29/2016  13:48
Elapsed time                   +166.9069E+00

PROCESSING
Background subtraction          No
Delta-m processing              N/A
Demagnetizing factor            No
Normalization                   No
Normalization factor            N/A
Offset (field)                  No
Offset (moment)                 No
Pole saturation                 No
Slope correction                No

VIEWPORT
Left                           -500.0000E-03
Right                          +500.0000E-03
Bottom                         -5.000000E-06
Top                            +5.000000E-06
Show X-axis?                    Yes
Show Y-axis?                    Yes

CHARACTERIZATION
Initial slope                   N/A
Saturation                     +2.606371E-06
Remanence                      +126.0085E-09
Coercivity                     +4.147803E-03
S*                             -28.54103E-09

SCRIPT
Averages (target)               1
Averaging time                 +100.0000E-03
Demagnetize?                    No
Maximum field                  +500.0000E-03
Field increment                +5.000000E-03
Hysteresis loop?                Yes
Initial magnetization?          No
Pause                          +1.000000E+00
Saturate before measuring?      No
Number of segments              2
Number of data                  402

Segment   Averaging      Initial        Field         Final                    Final 
 Number      Time         Field       Increment       Field         Pause      Index 
             (s)           (T)           (T)           (T)           (s)     
0000001,+100.0000E-03,+500.0000E-03,+5.000000E-03,-500.0000E-03,+1.000000E+00,0000201
0000002,+100.0000E-03,-500.0000E-03,+5.000000E-03,+500.0000E-03,+1.000000E+00,0000402

                           
    Field         Moment   
     (T)          (Am²)    
+499.3761E-03,+2.609271E-06
+494.6218E-03,+2.605713E-06
+489.5309E-03,+2.608263E-06
+484.6008E-03,+2.606074E-06
+479.4651E-03,+2.611122E-06
+474.5636E-03,+2.605983E-06
+469.6425E-03,+2.613735E-06
+464.5037E-03,+2.610858E-06
+459.6096E-03,+2.610645E-06
+454.4521E-03,+2.616806E-06
+449.5487E-03,+2.606736E-06
+444.6669E-03,+2.613990E-06
+439.4640E-03,+2.611209E-06
+434.5864E-03,+2.616088E-06
+429.7024E-03,+2.615246E-06
+424.5590E-03,+2.621404E-06
+419.6609E-03,+2.614029E-06
+414.5209E-03,+2.618825E-06
+409.6057E-03,+2.622195E-06
+404.6957E-03,+2.611636E-06
+399.5575E-03,+2.609817E-06
+394.6310E-03,+2.614487E-06
+389.5057E-03,+2.617656E-06
+384.6208E-03,+2.616454E-06
+379.7131E-03,+2.615652E-06
+374.5576E-03,+2.611929E-06
+369.6663E-03,+2.612571E-06
+364.5327E-03,+2.611328E-06
+359.6271E-03,+2.614866E-06
+354.7107E-03,+2.614378E-06
+349.5747E-03,+2.613154E-06
+344.6737E-03,+2.617024E-06
+339.7559E-03,+2.610600E-06
+334.6302E-03,+2.613672E-06
+329.7393E-03,+2.612328E-06
+324.5943E-03,+2.615095E-06
+319.6943E-03,+2.610057E-06
+314.7887E-03,+2.603163E-06
+309.6393E-03,+2.605956E-06
+304.7598E-03,+2.608368E-06
+299.6101E-03,+2.608308E-06
+294.7132E-03,+2.608417E-06
+289.8409E-03,+2.597681E-06
+284.6740E-03,+2.600848E-06
+279.7456E-03,+2.595159E-06
+274.6029E-03,+2.595426E-06
+269.7091E-03,+2.600207E-06
+264.8078E-03,+2.590753E-06
+259.6805E-03,+2.588659E-06
+254.7926E-03,+2.589010E-06
+249.8662E-03,+2.579266E-06
+244.7338E-03,+2.580105E-06
+239.8150E-03,+2.576058E-06
+234.6825E-03,+2.572498E-06
+229.7758E-03,+2.566223E-06
+224.8731E-03,+2.564769E-06
+219.7332E-03,+2.562511E-06
+214.8289E-03,+2.551116E-06
+209.6850E-03,+2.543492E-06
+204.7913E-03,+2.533493E-06
+199.8839E-03,+2.526871E-06
+194.7420E-03,+2.528633E-06
+189.8433E-03,+2.517468E-06
+184.6922E-03,+2.507379E-06
+179.8165E-03,+2.498898E-06
+174.8984E-03,+2.480008E-06
+169.7676E-03,+2.472324E-06
+164.8650E-03,+2.459670E-06
+159.7298E-03,+2.441580E-06
+154.7933E-03,+2.430219E-06
+149.9069E-03,+2.404983E-06
+144.7677E-03,+2.396004E-06
+139.8633E-03,+2.368187E-06
+134.9621E-03,+2.347582E-06
+129.8277E-03,+2.316462E-06
+124.9178E-03,+2.272518E-06
+119.7988E-03,+2.243790E-06
+114.8860E-03,+2.208727E-06
+109.9744E-03,+2.166249E-06
+104.8360E-03,+2.121945E-06
+99.94449E-03,+2.076054E-06
+94.80733E-03,+2.011258E-06
+89.88762E-03,+1.973995E-06
+85.00269E-03,+1.916325E-06
+79.84196E-03,+1.847428E-06
+74.93912E-03,+1.782698E-06
+69.80300E-03,+1.690553E-06
+64.92668E-03,+1.603930E-06
+60.00309E-03,+1.533369E-06
+54.85936E-03,+1.442810E-06
+49.95765E-03,+1.332918E-06
+45.05889E-03,+1.252564E-06
+39.92856E-03,+1.129131E-06
+35.02018E-03,+1.030182E-06
+29.85457E-03,+915.4533E-09
+24.97349E-03,+800.1724E-09
+20.08219E-03,+673.0824E-09
+14.93089E-03,+539.8588E-09
+10.06139E-03,+410.0330E-09
+4.901418E-03,+277.8992E-09
+16.66664E-06,+129.7849E-09
-4.866496E-03,-22.96223E-09
-9.983825E-03,-151.7289E-09
-14.90583E-03,-331.6812E-09
-20.04749E-03,-464.8724E-09
-24.94467E-03,-612.1316E-09
-29.84828E-03,-760.6747E-09
-35.02500E-03,-875.6169E-09
-39.90681E-03,-1.005386E-06
-45.03170E-03,-1.122896E-06
-49.93772E-03,-1.245712E-06
-54.85266E-03,-1.343819E-06
-59.96963E-03,-1.450115E-06
-64.89044E-03,-1.533939E-06
-69.77411E-03,-1.634995E-06
-74.92163E-03,-1.732778E-06
-79.83356E-03,-1.800437E-06
-84.96036E-03,-1.871792E-06
-89.86353E-03,-1.924176E-06
-94.77486E-03,-1.985215E-06
-99.91698E-03,-2.059080E-06
-104.8208E-03,-2.094332E-06
-109.9830E-03,-2.148132E-06
-114.8514E-03,-2.192832E-06
-119.7416E-03,-2.245352E-06
-124.8935E-03,-2.257315E-06
-129.7835E-03,-2.291542E-06
-134.9237E-03,-2.340864E-06
-139.8287E-03,-2.348831E-06
-144.7237E-03,-2.380026E-06
-149.8685E-03,-2.402035E-06
-154.7642E-03,-2.414140E-06
-159.6864E-03,-2.437282E-06
-164.8249E-03,-2.445040E-06
-169.7103E-03,-2.476762E-06
-174.8640E-03,-2.481270E-06
-179.7689E-03,-2.503895E-06
-184.6649E-03,-2.498890E-06
-189.8580E-03,-2.531671E-06
-194.6942E-03,-2.517677E-06
-199.8408E-03,-2.534297E-06
-204.7513E-03,-2.521934E-06
-209.6393E-03,-2.555820E-06
-214.7836E-03,-2.556284E-06
-219.6820E-03,-2.552978E-06
-224.8406E-03,-2.572696E-06
-229.6752E-03,-2.568941E-06
-234.6276E-03,-2.573299E-06
-239.7773E-03,-2.561283E-06
-244.6738E-03,-2.585475E-06
-249.7977E-03,-2.581603E-06
-254.7087E-03,-2.583392E-06
-259.6111E-03,-2.593259E-06
-264.7525E-03,-2.586004E-06
-269.6532E-03,-2.589341E-06
-274.5775E-03,-2.590092E-06
-279.6920E-03,-2.593835E-06
-284.6059E-03,-2.607578E-06
-289.7548E-03,-2.590146E-06
-294.6191E-03,-2.593972E-06
-299.5331E-03,-2.607295E-06
-304.6691E-03,-2.612847E-06
-309.6122E-03,-2.598324E-06
-314.7332E-03,-2.611715E-06
-319.6212E-03,-2.607416E-06
-324.5210E-03,-2.615039E-06
-329.6597E-03,-2.605995E-06
-334.5906E-03,-2.609742E-06
-339.6932E-03,-2.604277E-06
-344.5956E-03,-2.617887E-06
-349.5488E-03,-2.611442E-06
-354.5942E-03,-2.606033E-06
-359.5319E-03,-2.610415E-06
-364.4463E-03,-2.607499E-06
-369.5861E-03,-2.607528E-06
-374.4758E-03,-2.614958E-06
-379.5827E-03,-2.613263E-06
-384.5232E-03,-2.609844E-06
-389.4256E-03,-2.609990E-06
-394.5844E-03,-2.612824E-06
-399.4716E-03,-2.611287E-06
-404.5964E-03,-2.613778E-06
-409.5239E-03,-2.613018E-06
-414.3715E-03,-2.615385E-06
-419.5462E-03,-2.614518E-06
-424.4602E-03,-2.619089E-06
-429.5756E-03,-2.609024E-06
-434.4725E-03,-2.610080E-06
-439.3795E-03,-2.617776E-06
-444.5314E-03,-2.617253E-06
-449.4172E-03,-2.609149E-06
-454.3250E-03,-2.614347E-06
-459.4457E-03,-2.609505E-06
-464.3579E-03,-2.610101E-06
-469.5055E-03,-2.604866E-06
-474.3988E-03,-2.610927E-06
-479.3126E-03,-2.603880E-06
-484.4256E-03,-2.608262E-06
-489.3613E-03,-2.599745E-06
-494.4943E-03,-2.608448E-06
-499.4903E-03,-2.603113E-06

-499.4817E-03,-2.603898E-06
-494.7119E-03,-2.607914E-06
-489.6179E-03,-2.604907E-06
-484.7026E-03,-2.608252E-06
-479.5945E-03,-2.611413E-06
-474.6883E-03,-2.607477E-06
-469.7612E-03,-2.613588E-06
-464.6233E-03,-2.605841E-06
-459.7159E-03,-2.612337E-06
-454.5667E-03,-2.614054E-06
-449.6604E-03,-2.608482E-06
-444.7752E-03,-2.614102E-06
-439.6203E-03,-2.611304E-06
-434.7043E-03,-2.611467E-06
-429.7952E-03,-2.611367E-06
-424.6588E-03,-2.617076E-06
-419.7402E-03,-2.616692E-06
-414.6023E-03,-2.608471E-06
-409.7337E-03,-2.613740E-06
-404.7949E-03,-2.617993E-06
-399.6640E-03,-2.607115E-06
-394.7762E-03,-2.615152E-06
-389.6157E-03,-2.612094E-06
-384.7232E-03,-2.610968E-06
-379.8174E-03,-2.616129E-06
-374.6475E-03,-2.613455E-06
-369.7555E-03,-2.605633E-06
-364.6307E-03,-2.613815E-06
-359.7256E-03,-2.609125E-06
-354.8213E-03,-2.611698E-06
-349.6781E-03,-2.610321E-06
-344.7871E-03,-2.608132E-06
-339.8592E-03,-2.611605E-06
-334.7499E-03,-2.607770E-06
-329.8249E-03,-2.608136E-06
-324.6914E-03,-2.606718E-06
-319.7932E-03,-2.604889E-06
-314.9019E-03,-2.602036E-06
-309.7610E-03,-2.603046E-06
-304.8400E-03,-2.608747E-06
-299.7028E-03,-2.601296E-06
-294.7828E-03,-2.607641E-06
-289.9075E-03,-2.600390E-06
-284.7680E-03,-2.600874E-06
-279.8418E-03,-2.596648E-06
-274.7031E-03,-2.594226E-06
-269.8070E-03,-2.593738E-06
-264.9462E-03,-2.588410E-06
-259.7863E-03,-2.583632E-06
-254.8794E-03,-2.583643E-06
-249.9601E-03,-2.582724E-06
-244.8406E-03,-2.583371E-06
-239.9393E-03,-2.575318E-06
-234.8158E-03,-2.570715E-06
-229.8733E-03,-2.567334E-06
-224.9561E-03,-2.569012E-06
-219.8311E-03,-2.559465E-06
-214.9294E-03,-2.545808E-06
-209.7862E-03,-2.549064E-06
-204.8925E-03,-2.538329E-06
-199.9851E-03,-2.533644E-06
-194.8373E-03,-2.523452E-06
-189.9375E-03,-2.514890E-06
-184.8200E-03,-2.499974E-06
-179.9084E-03,-2.498386E-06
-174.9921E-03,-2.489262E-06
-169.8600E-03,-2.474353E-06
-164.9600E-03,-2.457618E-06
-159.8119E-03,-2.450707E-06
-154.9128E-03,-2.430893E-06
-150.0073E-03,-2.407823E-06
-144.8752E-03,-2.381691E-06
-139.9585E-03,-2.367331E-06
-135.0592E-03,-2.344695E-06
-129.9361E-03,-2.308237E-06
-125.0297E-03,-2.272761E-06
-119.8721E-03,-2.242660E-06
-114.9614E-03,-2.207799E-06
-110.0995E-03,-2.164520E-06
-104.9452E-03,-2.114452E-06
-100.0399E-03,-2.076614E-06
-94.90696E-03,-2.018691E-06
-89.99062E-03,-1.971447E-06
-85.10088E-03,-1.905601E-06
-79.96188E-03,-1.839841E-06
-75.05085E-03,-1.774060E-06
-69.91825E-03,-1.673639E-06
-64.99784E-03,-1.609905E-06
-60.10451E-03,-1.522558E-06
-54.96968E-03,-1.432197E-06
-50.06240E-03,-1.341792E-06
-45.15858E-03,-1.235132E-06
-40.04205E-03,-1.128554E-06
-35.13804E-03,-1.029336E-06
-29.98623E-03,-916.5796E-09
-25.07142E-03,-789.3780E-09
-20.18576E-03,-678.1704E-09
-15.03095E-03,-521.3681E-09
-10.12905E-03,-408.7797E-09
-4.987418E-03,-281.7870E-09
-127.7697E-06,-126.5209E-09
+4.796726E-03,+18.68010E-09
+9.913823E-03,+185.5645E-09
+14.79167E-03,+328.7103E-09
+19.94037E-03,+482.1996E-09
+24.84512E-03,+638.0981E-09
+29.73231E-03,+751.7772E-09
+34.90426E-03,+899.5763E-09
+39.78275E-03,+1.030253E-06
+44.93137E-03,+1.158903E-06
+49.82588E-03,+1.261111E-06
+54.74294E-03,+1.364572E-06
+59.88077E-03,+1.475430E-06
+64.78520E-03,+1.559957E-06
+69.68144E-03,+1.618333E-06
+74.81217E-03,+1.729982E-06
+79.72981E-03,+1.815352E-06
+84.86884E-03,+1.895249E-06
+89.75922E-03,+1.934710E-06
+94.66024E-03,+2.002916E-06
+99.81221E-03,+2.067721E-06
+104.6983E-03,+2.098552E-06
+109.8416E-03,+2.141149E-06
+114.7558E-03,+2.189350E-06
+119.6517E-03,+2.244636E-06
+124.7897E-03,+2.283080E-06
+129.6877E-03,+2.286053E-06
+134.8228E-03,+2.334543E-06
+139.7233E-03,+2.355993E-06
+144.6355E-03,+2.398478E-06
+149.7630E-03,+2.396566E-06
+154.6663E-03,+2.418925E-06
+159.5769E-03,+2.435458E-06
+164.7163E-03,+2.464591E-06
+169.6018E-03,+2.477036E-06
+174.7560E-03,+2.482895E-06
+179.6530E-03,+2.507505E-06
+184.5431E-03,+2.525905E-06
+189.6992E-03,+2.512052E-06
+194.6079E-03,+2.529110E-06
+199.7315E-03,+2.529924E-06
+204.6439E-03,+2.547941E-06
+209.5462E-03,+2.545776E-06
+214.6744E-03,+2.558591E-06
+219.5848E-03,+2.560754E-06
+224.7244E-03,+2.559825E-06
+229.6201E-03,+2.569067E-06
+234.5193E-03,+2.581291E-06
+239.6658E-03,+2.584718E-06
+244.5636E-03,+2.576181E-06
+249.7224E-03,+2.565047E-06
+254.6178E-03,+2.590102E-06
+259.4983E-03,+2.588360E-06
+264.6359E-03,+2.587272E-06
+269.5428E-03,+2.601935E-06
+274.4373E-03,+2.598025E-06
+279.5725E-03,+2.597208E-06
+284.5072E-03,+2.607926E-06
+289.6444E-03,+2.598408E-06
+294.5175E-03,+2.593191E-06
+299.4363E-03,+2.596599E-06
+304.5758E-03,+2.611903E-06
+309.4583E-03,+2.614028E-06
+314.6141E-03,+2.615788E-06
+319.5079E-03,+2.609325E-06
+324.4117E-03,+2.604042E-06
+329.5655E-03,+2.607046E-06
+334.4673E-03,+2.623895E-06
+339.5780E-03,+2.618881E-06
+344.4938E-03,+2.610167E-06
+349.3981E-03,+2.608245E-06
+354.5360E-03,+2.623342E-06
+359.4407E-03,+2.615319E-06
+364.3434E-03,+2.614792E-06
+369.4787E-03,+2.606141E-06
+374.3736E-03,+2.614134E-06
+379.5157E-03,+2.614837E-06
+384.4269E-03,+2.620154E-06
+389.3005E-03,+2.610747E-06
+394.4630E-03,+2.615576E-06
+399.3626E-03,+2.608981E-06
+404.4933E-03,+2.607678E-06
+409.4050E-03,+2.614842E-06
+414.3068E-03,+2.606231E-06
+419.4281E-03,+2.613133E-06
+424.3326E-03,+2.617141E-06
+429.4766E-03,+2.618514E-06
+434.3743E-03,+2.613758E-06
+439.2762E-03,+2.609546E-06
+444.4106E-03,+2.619176E-06
+449.3127E-03,+2.616272E-06
+454.2067E-03,+2.614994E-06
+459.3519E-03,+2.611278E-06
+464.2360E-03,+2.612644E-06
+469.3787E-03,+2.611524E-06
+474.2896E-03,+2.604441E-06
+479.1728E-03,+2.608166E-06
+484.3113E-03,+2.610042E-06
+489.2369E-03,+2.608802E-06
+494.3767E-03,+2.617261E-06
+499.3670E-03,+2.604630E-06

MicroMag 2900/3900 Data File ends
