MicroMag 2900/3900 Data File (Series 0016.002)
Direct moment vs. field; Hysteresis loop

INSTRUMENT
Configuration                   VSM
Temperature control             None
Hardware version                0004
Software version                06/08/2012
Units of measure                Hybrid SI
Temperature in                  Kelvin

SAMPLE
Mass                            N/A
Volume                          N/A
Demagnetizing factor            N/A

SETTINGS
Field range                    +1.000000E+00
Field (command)                 N/A
Moment range                   +5.000000E-06
Averaging time                 +200.0000E-03
Temperature (command)           N/A
Tmprtr difference correction    No
Orientation                     0.000000E+00
Vibration amplitude             1.0
Calibration factor             +3.570920E+00
Operating frequency            +83.00000E+00
Sweep mode                      Discrete
Pause after sweep increment    +300.0000E-03

MEASUREMENT
Description                    "DQ15-33B1"
Field (measured)                N/A
Temperature (measured)          N/A
Averages (completed)            1
Measured on                     10/29/2016  16:04
Elapsed time                   +206.9916E+00

PROCESSING
Background subtraction          No
Delta-m processing              N/A
Demagnetizing factor            No
Normalization                   No
Normalization factor            N/A
Offset (field)                  No
Offset (moment)                 No
Pole saturation                 No
Slope correction                No

VIEWPORT
Left                           -500.0000E-03
Right                          +500.0000E-03
Bottom                         -5.000000E-06
Top                            +5.000000E-06
Show X-axis?                    Yes
Show Y-axis?                    Yes

CHARACTERIZATION
Initial slope                   N/A
Saturation                     +2.637954E-06
Remanence                      +124.6254E-09
Coercivity                     +3.961236E-03
S*                             +53.13343E-06

SCRIPT
Averages (target)               1
Averaging time                 +200.0000E-03
Demagnetize?                    No
Maximum field                  +500.0000E-03
Field increment                +5.000000E-03
Hysteresis loop?                Yes
Initial magnetization?          No
Pause                          +1.000000E+00
Saturate before measuring?      No
Number of segments              2
Number of data                  402

Segment   Averaging      Initial        Field         Final                    Final 
 Number      Time         Field       Increment       Field         Pause      Index 
             (s)           (T)           (T)           (T)           (s)     
0000001,+200.0000E-03,+500.0000E-03,+5.000000E-03,-500.0000E-03,+1.000000E+00,0000201
0000002,+200.0000E-03,-500.0000E-03,+5.000000E-03,+500.0000E-03,+1.000000E+00,0000402

                           
    Field         Moment   
     (T)          (Am²)    
+499.3503E-03,+2.636053E-06
+494.5670E-03,+2.637874E-06
+489.4763E-03,+2.643302E-06
+484.5466E-03,+2.641481E-06
+479.4192E-03,+2.641079E-06
+474.4979E-03,+2.642672E-06
+469.5888E-03,+2.643720E-06
+464.4591E-03,+2.644473E-06
+459.5567E-03,+2.643136E-06
+454.3946E-03,+2.642056E-06
+449.4877E-03,+2.643088E-06
+444.6005E-03,+2.640862E-06
+439.4643E-03,+2.641072E-06
+434.5466E-03,+2.645760E-06
+429.6537E-03,+2.643887E-06
+424.5047E-03,+2.641723E-06
+419.5958E-03,+2.645414E-06
+414.4672E-03,+2.639729E-06
+409.5581E-03,+2.644798E-06
+404.6507E-03,+2.645293E-06
+399.5149E-03,+2.643631E-06
+394.6165E-03,+2.643709E-06
+389.4649E-03,+2.644322E-06
+384.5759E-03,+2.642523E-06
+379.6620E-03,+2.643762E-06
+374.5275E-03,+2.646907E-06
+369.6338E-03,+2.646543E-06
+364.4914E-03,+2.641211E-06
+359.5801E-03,+2.642878E-06
+354.6773E-03,+2.642691E-06
+349.5440E-03,+2.639328E-06
+344.6277E-03,+2.639514E-06
+339.7298E-03,+2.644186E-06
+334.5955E-03,+2.639573E-06
+329.6978E-03,+2.636348E-06
+324.5533E-03,+2.637777E-06
+319.6516E-03,+2.637429E-06
+314.7477E-03,+2.636852E-06
+309.5978E-03,+2.634703E-06
+304.7056E-03,+2.632145E-06
+299.5772E-03,+2.632317E-06
+294.6643E-03,+2.627437E-06
+289.7787E-03,+2.625855E-06
+284.6420E-03,+2.630881E-06
+279.7122E-03,+2.624976E-06
+274.5799E-03,+2.623602E-06
+269.6804E-03,+2.624580E-06
+264.7686E-03,+2.622823E-06
+259.6297E-03,+2.619372E-06
+254.7373E-03,+2.609072E-06
+249.8311E-03,+2.609514E-06
+244.7020E-03,+2.610586E-06
+239.7973E-03,+2.600535E-06
+234.6446E-03,+2.601215E-06
+229.7510E-03,+2.599100E-06
+224.8512E-03,+2.593170E-06
+219.7109E-03,+2.587307E-06
+214.8044E-03,+2.577183E-06
+209.6661E-03,+2.572637E-06
+204.7598E-03,+2.571785E-06
+199.8605E-03,+2.563275E-06
+194.7320E-03,+2.555359E-06
+189.8256E-03,+2.541069E-06
+184.6705E-03,+2.536553E-06
+179.7874E-03,+2.526359E-06
+174.8916E-03,+2.515492E-06
+169.7305E-03,+2.494327E-06
+164.8372E-03,+2.483401E-06
+159.7021E-03,+2.469901E-06
+154.7729E-03,+2.456927E-06
+149.8803E-03,+2.432732E-06
+144.7493E-03,+2.412664E-06
+139.8403E-03,+2.394993E-06
+134.9390E-03,+2.362780E-06
+129.8113E-03,+2.336371E-06
+124.9060E-03,+2.306491E-06
+119.7574E-03,+2.267608E-06
+114.8689E-03,+2.233575E-06
+109.9675E-03,+2.188580E-06
+104.8197E-03,+2.141833E-06
+99.93251E-03,+2.104082E-06
+94.78637E-03,+2.047915E-06
+89.87265E-03,+1.991865E-06
+84.98423E-03,+1.935234E-06
+79.84286E-03,+1.851546E-06
+74.92288E-03,+1.794735E-06
+69.79831E-03,+1.723376E-06
+64.89310E-03,+1.634529E-06
+59.99463E-03,+1.547451E-06
+54.84567E-03,+1.459590E-06
+49.95133E-03,+1.358149E-06
+45.05195E-03,+1.260457E-06
+39.91190E-03,+1.154926E-06
+35.01578E-03,+1.047502E-06
+29.85875E-03,+918.2498E-09
+24.96268E-03,+810.7194E-09
+20.06308E-03,+689.1759E-09
+14.91165E-03,+553.8674E-09
+10.03729E-03,+412.9519E-09
+4.898717E-03,+271.0340E-09
-3.759932E-06,+131.3636E-09
-4.885432E-03,-25.88199E-09
-10.01856E-03,-178.8242E-09
-14.91214E-03,-320.0299E-09
-20.07172E-03,-475.4078E-09
-24.96403E-03,-627.8585E-09
-29.86397E-03,-765.1728E-09
-35.02416E-03,-900.9179E-09
-39.92092E-03,-1.028905E-06
-45.04908E-03,-1.146213E-06
-49.95361E-03,-1.260871E-06
-54.85830E-03,-1.361948E-06
-59.98959E-03,-1.467191E-06
-64.89097E-03,-1.565318E-06
-69.78615E-03,-1.658671E-06
-74.92618E-03,-1.738629E-06
-79.84038E-03,-1.817608E-06
-84.98400E-03,-1.887083E-06
-89.87860E-03,-1.948385E-06
-94.78050E-03,-2.019942E-06
-99.91981E-03,-2.074158E-06
-104.8167E-03,-2.129113E-06
-109.9670E-03,-2.178897E-06
-114.8681E-03,-2.212648E-06
-119.7502E-03,-2.253562E-06
-124.8924E-03,-2.289700E-06
-129.8042E-03,-2.321865E-06
-134.9320E-03,-2.361384E-06
-139.8357E-03,-2.386132E-06
-144.7332E-03,-2.405704E-06
-149.8803E-03,-2.429198E-06
-154.7760E-03,-2.444525E-06
-159.6949E-03,-2.458137E-06
-164.8307E-03,-2.490510E-06
-169.7242E-03,-2.503750E-06
-174.8703E-03,-2.501249E-06
-179.7706E-03,-2.530746E-06
-184.6689E-03,-2.539944E-06
-189.8156E-03,-2.538379E-06
-194.7037E-03,-2.557975E-06
-199.8457E-03,-2.560066E-06
-204.7607E-03,-2.566826E-06
-209.6478E-03,-2.565913E-06
-214.7891E-03,-2.582139E-06
-219.6990E-03,-2.582607E-06
-224.8375E-03,-2.592616E-06
-229.7269E-03,-2.596580E-06
-234.6324E-03,-2.603565E-06
-239.7835E-03,-2.599206E-06
-244.6748E-03,-2.602848E-06
-249.8075E-03,-2.603806E-06
-254.7244E-03,-2.599579E-06
-259.6159E-03,-2.615978E-06
-264.7550E-03,-2.619786E-06
-269.6515E-03,-2.621633E-06
-274.5516E-03,-2.617396E-06
-279.6768E-03,-2.618374E-06
-284.6106E-03,-2.619087E-06
-289.7540E-03,-2.626975E-06
-294.6353E-03,-2.629090E-06
-299.5431E-03,-2.628020E-06
-304.6713E-03,-2.629778E-06
-309.5891E-03,-2.635482E-06
-314.7303E-03,-2.635839E-06
-319.6251E-03,-2.629663E-06
-324.5133E-03,-2.634998E-06
-329.6607E-03,-2.634235E-06
-334.5705E-03,-2.628016E-06
-339.6918E-03,-2.642449E-06
-344.5924E-03,-2.638949E-06
-349.5003E-03,-2.635459E-06
-354.6377E-03,-2.644420E-06
-359.5425E-03,-2.639801E-06
-364.4516E-03,-2.639495E-06
-369.5789E-03,-2.638379E-06
-374.4733E-03,-2.637809E-06
-379.6325E-03,-2.646934E-06
-384.5226E-03,-2.643514E-06
-389.4303E-03,-2.642224E-06
-394.5720E-03,-2.643879E-06
-399.4627E-03,-2.639339E-06
-404.5947E-03,-2.641948E-06
-409.5137E-03,-2.643213E-06
-414.4091E-03,-2.645387E-06
-419.5413E-03,-2.639674E-06
-424.4462E-03,-2.642912E-06
-429.5888E-03,-2.645615E-06
-434.4802E-03,-2.640965E-06
-439.3961E-03,-2.638669E-06
-444.5275E-03,-2.638743E-06
-449.4195E-03,-2.638737E-06
-454.3181E-03,-2.639715E-06
-459.4691E-03,-2.637586E-06
-464.3683E-03,-2.639844E-06
-469.5012E-03,-2.638292E-06
-474.4115E-03,-2.641968E-06
-479.3185E-03,-2.633301E-06
-484.4401E-03,-2.631817E-06
-489.3575E-03,-2.632890E-06
-494.4900E-03,-2.634378E-06
-499.4567E-03,-2.635872E-06

-499.4678E-03,-2.636695E-06
-494.6927E-03,-2.633888E-06
-489.5840E-03,-2.639408E-06
-484.6674E-03,-2.637609E-06
-479.5322E-03,-2.638324E-06
-474.6188E-03,-2.635617E-06
-469.7016E-03,-2.637144E-06
-464.5623E-03,-2.638750E-06
-459.6575E-03,-2.638335E-06
-454.5045E-03,-2.642448E-06
-449.6042E-03,-2.637731E-06
-444.7093E-03,-2.637831E-06
-439.5610E-03,-2.638480E-06
-434.6559E-03,-2.640252E-06
-429.7570E-03,-2.638705E-06
-424.6086E-03,-2.640421E-06
-419.7033E-03,-2.645922E-06
-414.5764E-03,-2.642003E-06
-409.6758E-03,-2.638084E-06
-404.7545E-03,-2.638988E-06
-399.6129E-03,-2.643571E-06
-394.7317E-03,-2.643372E-06
-389.5823E-03,-2.643049E-06
-384.6718E-03,-2.644650E-06
-379.7759E-03,-2.637055E-06
-374.6283E-03,-2.636008E-06
-369.7250E-03,-2.641369E-06
-364.5993E-03,-2.640792E-06
-359.6906E-03,-2.638790E-06
-354.7826E-03,-2.638402E-06
-349.6424E-03,-2.639197E-06
-344.7356E-03,-2.639963E-06
-339.8315E-03,-2.634868E-06
-334.7144E-03,-2.638495E-06
-329.7985E-03,-2.634938E-06
-324.6554E-03,-2.634947E-06
-319.7514E-03,-2.633963E-06
-314.8619E-03,-2.633228E-06
-309.7226E-03,-2.632821E-06
-304.8139E-03,-2.628600E-06
-299.6783E-03,-2.628525E-06
-294.7589E-03,-2.631047E-06
-289.8692E-03,-2.632114E-06
-284.7377E-03,-2.622928E-06
-279.8189E-03,-2.623969E-06
-274.6750E-03,-2.617683E-06
-269.7739E-03,-2.619663E-06
-264.8847E-03,-2.617285E-06
-259.7310E-03,-2.611828E-06
-254.8335E-03,-2.609285E-06
-249.9373E-03,-2.607022E-06
-244.8019E-03,-2.606899E-06
-239.9109E-03,-2.598095E-06
-234.7628E-03,-2.598699E-06
-229.8484E-03,-2.597575E-06
-224.9500E-03,-2.592915E-06
-219.8118E-03,-2.581751E-06
-214.9074E-03,-2.575669E-06
-209.7721E-03,-2.572570E-06
-204.8651E-03,-2.562106E-06
-199.9514E-03,-2.558182E-06
-194.8208E-03,-2.547501E-06
-189.9288E-03,-2.536648E-06
-184.7792E-03,-2.530049E-06
-179.8867E-03,-2.522975E-06
-174.9861E-03,-2.512055E-06
-169.8384E-03,-2.497699E-06
-164.9417E-03,-2.487390E-06
-159.8026E-03,-2.469631E-06
-154.8907E-03,-2.452307E-06
-149.9855E-03,-2.430688E-06
-144.8514E-03,-2.405355E-06
-139.9506E-03,-2.387725E-06
-135.0418E-03,-2.365200E-06
-129.9060E-03,-2.331441E-06
-125.0000E-03,-2.298185E-06
-119.8641E-03,-2.264236E-06
-114.9715E-03,-2.229475E-06
-110.0760E-03,-2.185380E-06
-104.9394E-03,-2.142731E-06
-100.0253E-03,-2.092772E-06
-94.88898E-03,-2.040382E-06
-89.96734E-03,-1.979119E-06
-85.07927E-03,-1.922119E-06
-79.94233E-03,-1.852817E-06
-75.02821E-03,-1.775901E-06
-69.89026E-03,-1.705460E-06
-65.00055E-03,-1.631836E-06
-60.10328E-03,-1.535563E-06
-54.95568E-03,-1.449057E-06
-50.05090E-03,-1.348363E-06
-45.15283E-03,-1.262354E-06
-40.02017E-03,-1.149726E-06
-35.12530E-03,-1.044367E-06
-29.96643E-03,-918.1946E-09
-25.06482E-03,-805.6251E-09
-20.16405E-03,-670.7199E-09
-15.03293E-03,-539.9578E-09
-10.12600E-03,-410.2151E-09
-4.988899E-03,-259.8563E-09
-120.3681E-06,-121.4714E-09
+4.805430E-03,+29.59067E-09
+9.925948E-03,+187.6914E-09
+14.80858E-03,+339.6167E-09
+19.95206E-03,+488.7187E-09
+24.85579E-03,+626.7312E-09
+29.74744E-03,+764.5460E-09
+34.90423E-03,+903.8179E-09
+39.80559E-03,+1.030099E-06
+44.94372E-03,+1.159731E-06
+49.84309E-03,+1.271593E-06
+54.75070E-03,+1.377525E-06
+59.88969E-03,+1.481212E-06
+64.78640E-03,+1.569200E-06
+69.68480E-03,+1.661094E-06
+74.81132E-03,+1.747312E-06
+79.73518E-03,+1.822176E-06
+84.87674E-03,+1.887048E-06
+89.77412E-03,+1.973556E-06
+94.68109E-03,+2.025424E-06
+99.81906E-03,+2.084298E-06
+104.7149E-03,+2.139268E-06
+109.8564E-03,+2.179262E-06
+114.7613E-03,+2.222939E-06
+119.6627E-03,+2.252297E-06
+124.8003E-03,+2.295847E-06
+129.6940E-03,+2.327536E-06
+134.8325E-03,+2.368989E-06
+139.7278E-03,+2.382750E-06
+144.6382E-03,+2.415271E-06
+149.7633E-03,+2.439093E-06
+154.6786E-03,+2.449846E-06
+159.5910E-03,+2.467787E-06
+164.7220E-03,+2.494088E-06
+169.6220E-03,+2.503426E-06
+174.7629E-03,+2.513764E-06
+179.6750E-03,+2.519934E-06
+184.5455E-03,+2.527734E-06
+189.6957E-03,+2.544617E-06
+194.6010E-03,+2.556558E-06
+199.7333E-03,+2.570342E-06
+204.6391E-03,+2.558812E-06
+209.5477E-03,+2.579348E-06
+214.6866E-03,+2.576709E-06
+219.5956E-03,+2.587337E-06
+224.7261E-03,+2.590972E-06
+229.6185E-03,+2.592425E-06
+234.5104E-03,+2.594896E-06
+239.6796E-03,+2.607062E-06
+244.5725E-03,+2.616740E-06
+249.7029E-03,+2.609908E-06
+254.6113E-03,+2.611233E-06
+259.5110E-03,+2.619122E-06
+264.6533E-03,+2.611994E-06
+269.5561E-03,+2.622063E-06
+274.4492E-03,+2.628353E-06
+279.5859E-03,+2.633173E-06
+284.5097E-03,+2.626382E-06
+289.6408E-03,+2.635245E-06
+294.5384E-03,+2.626806E-06
+299.4314E-03,+2.631019E-06
+304.5767E-03,+2.631907E-06
+309.4663E-03,+2.636467E-06
+314.6336E-03,+2.634180E-06
+319.5200E-03,+2.635791E-06
+324.4141E-03,+2.637263E-06
+329.5598E-03,+2.647887E-06
+334.4552E-03,+2.638672E-06
+339.5914E-03,+2.637589E-06
+344.4930E-03,+2.636812E-06
+349.3951E-03,+2.639063E-06
+354.5323E-03,+2.638364E-06
+359.4324E-03,+2.641890E-06
+364.3431E-03,+2.638528E-06
+369.4857E-03,+2.648746E-06
+374.3726E-03,+2.643809E-06
+379.5209E-03,+2.649253E-06
+384.4282E-03,+2.647090E-06
+389.3059E-03,+2.651211E-06
+394.4548E-03,+2.637595E-06
+399.3589E-03,+2.636884E-06
+404.4959E-03,+2.642945E-06
+409.3909E-03,+2.643719E-06
+414.3027E-03,+2.641644E-06
+419.4250E-03,+2.642959E-06
+424.3337E-03,+2.646093E-06
+429.4596E-03,+2.644806E-06
+434.3673E-03,+2.646522E-06
+439.2765E-03,+2.647013E-06
+444.4168E-03,+2.642921E-06
+449.3041E-03,+2.642831E-06
+454.2067E-03,+2.644612E-06
+459.3481E-03,+2.640680E-06
+464.2517E-03,+2.641042E-06
+469.3780E-03,+2.646951E-06
+474.2891E-03,+2.642837E-06
+479.1821E-03,+2.637830E-06
+484.3185E-03,+2.641722E-06
+489.2433E-03,+2.642433E-06
+494.3711E-03,+2.637550E-06
+499.3436E-03,+2.638407E-06

MicroMag 2900/3900 Data File ends
