MicroMag 2900/3900 Data File (Series 0016.002)
Direct moment vs. field; Hysteresis loop

INSTRUMENT
Configuration                   VSM
Temperature control             None
Hardware version                0004
Software version                06/08/2012
Units of measure                Hybrid SI
Temperature in                  Kelvin

SAMPLE
Mass                            N/A
Volume                          N/A
Demagnetizing factor            N/A

SETTINGS
Field range                    +1.000000E+00
Field (command)                 N/A
Moment range                   +5.000000E-06
Averaging time                 +200.0000E-03
Temperature (command)           N/A
Tmprtr difference correction    No
Orientation                     0.000000E+00
Vibration amplitude             1.0
Calibration factor             +3.570920E+00
Operating frequency            +83.00000E+00
Sweep mode                      Discrete
Pause after sweep increment    +300.0000E-03

MEASUREMENT
Description                    "DQ15-33B1"
Field (measured)                N/A
Temperature (measured)          N/A
Averages (completed)            1
Measured on                     10/29/2016  15:47
Elapsed time                   +206.9390E+00

PROCESSING
Background subtraction          No
Delta-m processing              N/A
Demagnetizing factor            No
Normalization                   No
Normalization factor            N/A
Offset (field)                  No
Offset (moment)                 No
Pole saturation                 No
Slope correction                No

VIEWPORT
Left                           -500.0000E-03
Right                          +500.0000E-03
Bottom                         -5.000000E-06
Top                            +5.000000E-06
Show X-axis?                    Yes
Show Y-axis?                    Yes

CHARACTERIZATION
Initial slope                   N/A
Saturation                     +2.631695E-06
Remanence                      +120.3298E-09
Coercivity                     +4.255717E-03
S*                             -122.6081E-06

SCRIPT
Averages (target)               1
Averaging time                 +200.0000E-03
Demagnetize?                    No
Maximum field                  +500.0000E-03
Field increment                +5.000000E-03
Hysteresis loop?                Yes
Initial magnetization?          No
Pause                          +1.000000E+00
Saturate before measuring?      No
Number of segments              2
Number of data                  402

Segment   Averaging      Initial        Field         Final                    Final 
 Number      Time         Field       Increment       Field         Pause      Index 
             (s)           (T)           (T)           (T)           (s)     
0000001,+200.0000E-03,+500.0000E-03,+5.000000E-03,-500.0000E-03,+1.000000E+00,0000201
0000002,+200.0000E-03,-500.0000E-03,+5.000000E-03,+500.0000E-03,+1.000000E+00,0000402

                           
    Field         Moment   
     (T)          (Am²)    
+499.3578E-03,+2.634332E-06
+494.5716E-03,+2.636213E-06
+489.4733E-03,+2.633988E-06
+484.5465E-03,+2.632346E-06
+479.4113E-03,+2.634783E-06
+474.5006E-03,+2.634644E-06
+469.5823E-03,+2.636066E-06
+464.4451E-03,+2.635847E-06
+459.5513E-03,+2.639771E-06
+454.3943E-03,+2.635004E-06
+449.5021E-03,+2.639237E-06
+444.6066E-03,+2.637875E-06
+439.4580E-03,+2.639737E-06
+434.5556E-03,+2.638130E-06
+429.6508E-03,+2.637732E-06
+424.5107E-03,+2.640835E-06
+419.6051E-03,+2.639464E-06
+414.4637E-03,+2.641106E-06
+409.5647E-03,+2.637144E-06
+404.6529E-03,+2.638597E-06
+399.5187E-03,+2.639232E-06
+394.6168E-03,+2.639456E-06
+389.4584E-03,+2.639709E-06
+384.5755E-03,+2.639276E-06
+379.6706E-03,+2.638659E-06
+374.5267E-03,+2.634633E-06
+369.6266E-03,+2.639312E-06
+364.4887E-03,+2.634221E-06
+359.5857E-03,+2.636226E-06
+354.6778E-03,+2.636153E-06
+349.5370E-03,+2.636767E-06
+344.6369E-03,+2.641370E-06
+339.7318E-03,+2.637237E-06
+334.5885E-03,+2.638274E-06
+329.7039E-03,+2.637503E-06
+324.5536E-03,+2.636757E-06
+319.6567E-03,+2.632903E-06
+314.7546E-03,+2.633950E-06
+309.6008E-03,+2.627628E-06
+304.7284E-03,+2.625005E-06
+299.5732E-03,+2.633016E-06
+294.6698E-03,+2.623755E-06
+289.7755E-03,+2.623052E-06
+284.6393E-03,+2.623116E-06
+279.7072E-03,+2.623264E-06
+274.5812E-03,+2.612556E-06
+269.6757E-03,+2.618874E-06
+264.7744E-03,+2.615072E-06
+259.6377E-03,+2.614771E-06
+254.7342E-03,+2.612444E-06
+249.8365E-03,+2.602406E-06
+244.7001E-03,+2.604593E-06
+239.7950E-03,+2.598425E-06
+234.6378E-03,+2.598609E-06
+229.7469E-03,+2.591592E-06
+224.8521E-03,+2.592467E-06
+219.7112E-03,+2.585836E-06
+214.7989E-03,+2.578011E-06
+209.6679E-03,+2.573173E-06
+204.7656E-03,+2.564987E-06
+199.8553E-03,+2.560032E-06
+194.7274E-03,+2.547889E-06
+189.8182E-03,+2.543086E-06
+184.6704E-03,+2.534865E-06
+179.7930E-03,+2.521922E-06
+174.8778E-03,+2.510034E-06
+169.7231E-03,+2.504256E-06
+164.8347E-03,+2.483496E-06
+159.7048E-03,+2.464399E-06
+154.7811E-03,+2.451353E-06
+149.8888E-03,+2.436065E-06
+144.7438E-03,+2.418575E-06
+139.8372E-03,+2.387232E-06
+134.9410E-03,+2.366674E-06
+129.8042E-03,+2.332684E-06
+124.9051E-03,+2.295261E-06
+119.7679E-03,+2.264276E-06
+114.8680E-03,+2.228156E-06
+109.9646E-03,+2.182693E-06
+104.8202E-03,+2.152060E-06
+99.92549E-03,+2.100424E-06
+94.78298E-03,+2.039283E-06
+89.87316E-03,+1.986308E-06
+84.97868E-03,+1.930725E-06
+79.84896E-03,+1.851997E-06
+74.92251E-03,+1.787410E-06
+69.78995E-03,+1.704574E-06
+64.89498E-03,+1.630636E-06
+59.99024E-03,+1.543145E-06
+54.84173E-03,+1.449329E-06
+49.95259E-03,+1.353587E-06
+45.04620E-03,+1.264063E-06
+39.90349E-03,+1.153727E-06
+35.00865E-03,+1.046181E-06
+29.85763E-03,+925.8375E-09
+24.95781E-03,+815.7855E-09
+20.05651E-03,+675.6799E-09
+14.90911E-03,+548.4340E-09
+10.03144E-03,+417.9652E-09
+4.893537E-03,+271.0608E-09
-9.660052E-06,+121.0006E-09
-4.888650E-03,-13.29717E-09
-10.01984E-03,-178.8914E-09
-14.91866E-03,-321.9195E-09
-20.06224E-03,-484.1957E-09
-24.96578E-03,-622.9348E-09
-29.86829E-03,-764.1804E-09
-35.02158E-03,-909.5646E-09
-39.91362E-03,-1.023281E-06
-45.05644E-03,-1.146300E-06
-49.95227E-03,-1.257639E-06
-54.84959E-03,-1.361845E-06
-60.00083E-03,-1.467910E-06
-64.89827E-03,-1.564573E-06
-69.79080E-03,-1.657354E-06
-74.93274E-03,-1.736678E-06
-79.84492E-03,-1.800822E-06
-84.96802E-03,-1.898402E-06
-89.86609E-03,-1.955961E-06
-94.78525E-03,-2.014830E-06
-99.91887E-03,-2.061740E-06
-104.8223E-03,-2.118399E-06
-109.9765E-03,-2.174243E-06
-114.8689E-03,-2.204424E-06
-119.7498E-03,-2.254015E-06
-124.9011E-03,-2.292837E-06
-129.8079E-03,-2.327724E-06
-134.9380E-03,-2.348808E-06
-139.8286E-03,-2.383683E-06
-144.7381E-03,-2.398318E-06
-149.8779E-03,-2.430916E-06
-154.7819E-03,-2.437175E-06
-159.6871E-03,-2.468835E-06
-164.8396E-03,-2.474568E-06
-169.7240E-03,-2.485440E-06
-174.8782E-03,-2.510734E-06
-179.7711E-03,-2.522308E-06
-184.6769E-03,-2.525478E-06
-189.8233E-03,-2.538690E-06
-194.7093E-03,-2.539597E-06
-199.8441E-03,-2.550227E-06
-204.7627E-03,-2.561641E-06
-209.6561E-03,-2.558769E-06
-214.7906E-03,-2.570194E-06
-219.7026E-03,-2.587173E-06
-224.8373E-03,-2.574194E-06
-229.7375E-03,-2.585996E-06
-234.6392E-03,-2.589820E-06
-239.7908E-03,-2.596076E-06
-244.6848E-03,-2.600952E-06
-249.8180E-03,-2.602342E-06
-254.7236E-03,-2.611724E-06
-259.6221E-03,-2.598429E-06
-264.7558E-03,-2.617169E-06
-269.6557E-03,-2.617575E-06
-274.5493E-03,-2.613184E-06
-279.6904E-03,-2.623653E-06
-284.6191E-03,-2.619613E-06
-289.7470E-03,-2.623738E-06
-294.6248E-03,-2.623224E-06
-299.5465E-03,-2.630187E-06
-304.6777E-03,-2.625914E-06
-309.5864E-03,-2.623233E-06
-314.7336E-03,-2.629905E-06
-319.6258E-03,-2.631046E-06
-324.5253E-03,-2.631425E-06
-329.6653E-03,-2.628513E-06
-334.5796E-03,-2.633266E-06
-339.7010E-03,-2.632506E-06
-344.5995E-03,-2.635459E-06
-349.5028E-03,-2.637679E-06
-354.6506E-03,-2.633377E-06
-359.5509E-03,-2.632151E-06
-364.4547E-03,-2.634514E-06
-369.5886E-03,-2.631943E-06
-374.4772E-03,-2.629841E-06
-379.6349E-03,-2.636424E-06
-384.5258E-03,-2.634382E-06
-389.4311E-03,-2.634636E-06
-394.5822E-03,-2.634612E-06
-399.4684E-03,-2.636911E-06
-404.6055E-03,-2.636397E-06
-409.5127E-03,-2.633504E-06
-414.4142E-03,-2.636926E-06
-419.5503E-03,-2.632345E-06
-424.4468E-03,-2.632625E-06
-429.5848E-03,-2.632903E-06
-434.4908E-03,-2.632090E-06
-439.3948E-03,-2.635224E-06
-444.5443E-03,-2.632621E-06
-449.4221E-03,-2.635717E-06
-454.3164E-03,-2.629789E-06
-459.4688E-03,-2.634594E-06
-464.3728E-03,-2.632152E-06
-469.5037E-03,-2.631721E-06
-474.4161E-03,-2.631205E-06
-479.3238E-03,-2.630177E-06
-484.4409E-03,-2.627873E-06
-489.3660E-03,-2.627825E-06
-494.4966E-03,-2.630730E-06
-499.4633E-03,-2.632126E-06

-499.4710E-03,-2.629101E-06
-494.6949E-03,-2.633532E-06
-489.5859E-03,-2.627802E-06
-484.6759E-03,-2.630854E-06
-479.5385E-03,-2.630989E-06
-474.6319E-03,-2.632612E-06
-469.7173E-03,-2.634216E-06
-464.5685E-03,-2.636782E-06
-459.6665E-03,-2.636998E-06
-454.5114E-03,-2.636777E-06
-449.6131E-03,-2.631816E-06
-444.7092E-03,-2.636504E-06
-439.5707E-03,-2.636980E-06
-434.6542E-03,-2.635466E-06
-429.7557E-03,-2.635646E-06
-424.6164E-03,-2.638432E-06
-419.7077E-03,-2.637385E-06
-414.5768E-03,-2.637017E-06
-409.6719E-03,-2.635791E-06
-404.7689E-03,-2.639818E-06
-399.6339E-03,-2.635885E-06
-394.7390E-03,-2.635778E-06
-389.5867E-03,-2.636911E-06
-384.6833E-03,-2.634328E-06
-379.7892E-03,-2.636104E-06
-374.6268E-03,-2.634526E-06
-369.7340E-03,-2.636637E-06
-364.5999E-03,-2.636493E-06
-359.6862E-03,-2.630286E-06
-354.7902E-03,-2.635908E-06
-349.6502E-03,-2.634550E-06
-344.7368E-03,-2.632400E-06
-339.8368E-03,-2.631266E-06
-334.7148E-03,-2.633537E-06
-329.8045E-03,-2.632792E-06
-324.6513E-03,-2.634809E-06
-319.7578E-03,-2.633097E-06
-314.8611E-03,-2.625697E-06
-309.7242E-03,-2.626567E-06
-304.8124E-03,-2.626268E-06
-299.6766E-03,-2.629693E-06
-294.7610E-03,-2.625870E-06
-289.8702E-03,-2.622296E-06
-284.7360E-03,-2.620939E-06
-279.8201E-03,-2.619179E-06
-274.6808E-03,-2.615695E-06
-269.7802E-03,-2.617407E-06
-264.8785E-03,-2.611672E-06
-259.7430E-03,-2.612737E-06
-254.8371E-03,-2.608775E-06
-249.9369E-03,-2.605265E-06
-244.8025E-03,-2.600971E-06
-239.9054E-03,-2.598718E-06
-234.7612E-03,-2.590371E-06
-229.8566E-03,-2.589210E-06
-224.9571E-03,-2.586050E-06
-219.8131E-03,-2.583230E-06
-214.9099E-03,-2.575613E-06
-209.7762E-03,-2.572030E-06
-204.8719E-03,-2.565288E-06
-199.9630E-03,-2.552383E-06
-194.8220E-03,-2.539891E-06
-189.9294E-03,-2.539796E-06
-184.7920E-03,-2.524908E-06
-179.8918E-03,-2.516295E-06
-174.9883E-03,-2.509279E-06
-169.8416E-03,-2.495435E-06
-164.9358E-03,-2.481400E-06
-159.8010E-03,-2.465659E-06
-154.8919E-03,-2.449265E-06
-149.9918E-03,-2.428903E-06
-144.8459E-03,-2.411405E-06
-139.9575E-03,-2.383341E-06
-135.0483E-03,-2.354287E-06
-129.9143E-03,-2.326156E-06
-125.0048E-03,-2.298207E-06
-119.8572E-03,-2.264422E-06
-114.9599E-03,-2.225726E-06
-110.0814E-03,-2.191273E-06
-104.9298E-03,-2.141339E-06
-100.0295E-03,-2.093141E-06
-94.88937E-03,-2.035328E-06
-89.97133E-03,-1.981379E-06
-85.09135E-03,-1.921811E-06
-79.94094E-03,-1.853745E-06
-75.03032E-03,-1.786359E-06
-69.89772E-03,-1.698359E-06
-64.99796E-03,-1.627660E-06
-60.10988E-03,-1.540935E-06
-54.96036E-03,-1.442453E-06
-50.05411E-03,-1.348725E-06
-45.14724E-03,-1.256955E-06
-40.02947E-03,-1.143649E-06
-35.13126E-03,-1.035054E-06
-29.96561E-03,-926.3455E-09
-25.05972E-03,-804.9803E-09
-20.17206E-03,-671.8037E-09
-15.01446E-03,-541.5760E-09
-10.12573E-03,-406.2138E-09
-4.990224E-03,-274.3709E-09
-110.6407E-06,-122.5798E-09
+4.791377E-03,+19.92879E-09
+9.931277E-03,+186.9515E-09
+14.81508E-03,+330.1344E-09
+19.95010E-03,+478.9156E-09
+24.85659E-03,+631.5510E-09
+29.74626E-03,+759.0053E-09
+34.91363E-03,+896.0823E-09
+39.81775E-03,+1.032797E-06
+44.93554E-03,+1.152617E-06
+49.84650E-03,+1.262802E-06
+54.74941E-03,+1.373204E-06
+59.88232E-03,+1.475177E-06
+64.79357E-03,+1.565812E-06
+69.69322E-03,+1.653501E-06
+74.81997E-03,+1.743845E-06
+79.73955E-03,+1.823951E-06
+84.87978E-03,+1.890119E-06
+89.77442E-03,+1.958249E-06
+94.67728E-03,+2.019835E-06
+99.81856E-03,+2.081027E-06
+104.7077E-03,+2.132086E-06
+109.8716E-03,+2.177182E-06
+114.7606E-03,+2.225380E-06
+119.6572E-03,+2.250203E-06
+124.8005E-03,+2.294553E-06
+129.7025E-03,+2.325055E-06
+134.8379E-03,+2.354352E-06
+139.7351E-03,+2.378484E-06
+144.6387E-03,+2.407103E-06
+149.7630E-03,+2.424629E-06
+154.6715E-03,+2.439546E-06
+159.5855E-03,+2.467343E-06
+164.7213E-03,+2.487313E-06
+169.6054E-03,+2.495003E-06
+174.7610E-03,+2.509797E-06
+179.6684E-03,+2.521108E-06
+184.5580E-03,+2.537090E-06
+189.7090E-03,+2.543050E-06
+194.6159E-03,+2.541371E-06
+199.7392E-03,+2.559542E-06
+204.6422E-03,+2.572795E-06
+209.5461E-03,+2.567350E-06
+214.6846E-03,+2.578074E-06
+219.5804E-03,+2.583272E-06
+224.7312E-03,+2.590144E-06
+229.6275E-03,+2.590361E-06
+234.5143E-03,+2.599090E-06
+239.6786E-03,+2.597777E-06
+244.5811E-03,+2.602744E-06
+249.7134E-03,+2.606752E-06
+254.6211E-03,+2.610895E-06
+259.5094E-03,+2.618929E-06
+264.6439E-03,+2.608177E-06
+269.5489E-03,+2.612365E-06
+274.4431E-03,+2.619367E-06
+279.5749E-03,+2.630129E-06
+284.5134E-03,+2.626991E-06
+289.6409E-03,+2.632092E-06
+294.5389E-03,+2.626291E-06
+299.4382E-03,+2.631130E-06
+304.5739E-03,+2.627821E-06
+309.4743E-03,+2.633156E-06
+314.6197E-03,+2.631034E-06
+319.5211E-03,+2.641398E-06
+324.4118E-03,+2.637597E-06
+329.5600E-03,+2.635650E-06
+334.4533E-03,+2.628921E-06
+339.5875E-03,+2.635773E-06
+344.4952E-03,+2.627026E-06
+349.3933E-03,+2.638157E-06
+354.5285E-03,+2.634232E-06
+359.4334E-03,+2.637349E-06
+364.3472E-03,+2.641236E-06
+369.4908E-03,+2.634027E-06
+374.3677E-03,+2.641112E-06
+379.5105E-03,+2.643495E-06
+384.4204E-03,+2.644755E-06
+389.2925E-03,+2.645396E-06
+394.4601E-03,+2.641245E-06
+399.3613E-03,+2.638789E-06
+404.4913E-03,+2.638983E-06
+409.3916E-03,+2.639380E-06
+414.3006E-03,+2.637352E-06
+419.4344E-03,+2.637153E-06
+424.3331E-03,+2.637924E-06
+429.4718E-03,+2.640442E-06
+434.3781E-03,+2.635065E-06
+439.2837E-03,+2.636697E-06
+444.4237E-03,+2.639145E-06
+449.3070E-03,+2.631836E-06
+454.2091E-03,+2.642697E-06
+459.3529E-03,+2.638426E-06
+464.2455E-03,+2.642819E-06
+469.3750E-03,+2.631267E-06
+474.2860E-03,+2.637023E-06
+479.1953E-03,+2.638237E-06
+484.3187E-03,+2.638204E-06
+489.2356E-03,+2.639235E-06
+494.3771E-03,+2.633077E-06
+499.3523E-03,+2.633252E-06

MicroMag 2900/3900 Data File ends
